Saved at time: 47669127 milliseconds
Integration time: 1500000
Scans to average: 0
Boxcar smoothing: 0
Wavelengths	Intensities
337.35134888	1661.00000000
337.80362194	1671.00000000
338.25595141	1684.00000000
338.70833725	1667.00000000
339.16077942	1648.00000000
339.61327788	1629.00000000
340.06583261	1655.00000000
340.51844356	1589.00000000
340.97111069	1595.00000000
341.42383397	1587.00000000
341.87661336	1565.00000000
342.32944883	1594.00000000
342.78234033	1609.00000000
343.23528784	1624.00000000
343.68829131	1660.00000000
344.14135070	1630.00000000
344.59446599	1653.00000000
345.04763714	1608.00000000
345.50086410	1588.00000000
345.95414684	1666.00000000
346.40748532	1620.00000000
346.86087951	1623.00000000
347.31432937	1641.00000000
347.76783486	1672.00000000
348.22139595	1631.00000000
348.67501260	1624.00000000
349.12868478	1649.00000000
349.58241244	1617.00000000
350.03619554	1658.00000000
350.49003406	1640.00000000
350.94392796	1628.00000000
351.39787720	1599.00000000
351.85188173	1623.00000000
352.30594153	1581.00000000
352.76005657	1608.00000000
353.21422679	1596.00000000
353.66845217	1644.00000000
354.12273266	1592.00000000
354.57706824	1602.00000000
355.03145886	1619.00000000
355.48590449	1644.00000000
355.94040509	1636.00000000
356.39496062	1623.00000000
356.84957105	1622.00000000
357.30423634	1650.00000000
357.75895646	1649.00000000
358.21373136	1610.00000000
358.66856102	1583.00000000
359.12344538	1647.00000000
359.57838442	1652.00000000
360.03337811	1560.00000000
360.48842639	1641.00000000
360.94352924	1574.00000000
361.39868662	1638.00000000
361.85389850	1638.00000000
362.30916483	1637.00000000
362.76448558	1662.00000000
363.21986071	1584.00000000
363.67529018	1607.00000000
364.13077397	1644.00000000
364.58631202	1642.00000000
365.04190431	1593.00000000
365.49755080	1569.00000000
365.95325145	1663.00000000
366.40900623	1593.00000000
366.86481509	1641.00000000
367.32067801	1665.00000000
367.77659494	1638.00000000
368.23256584	1656.00000000
368.68859069	1637.00000000
369.14466944	1602.00000000
369.60080206	1647.00000000
370.05698851	1603.00000000
370.51322875	1551.00000000
370.96952275	1596.00000000
371.42587047	1657.00000000
371.88227187	1663.00000000
372.33872691	1664.00000000
372.79523557	1592.00000000
373.25179780	1580.00000000
373.70841357	1627.00000000
374.16508283	1634.00000000
374.62180556	1638.00000000
375.07858171	1653.00000000
375.53541125	1659.00000000
375.99229415	1656.00000000
376.44923035	1558.00000000
376.90621984	1605.00000000
377.36326257	1658.00000000
377.82035850	1605.00000000
378.27750760	1611.00000000
378.73470984	1323.00000000
379.19196516	1606.00000000
379.64927355	1649.00000000
380.10663495	1516.00000000
380.56404934	1603.00000000
381.02151668	1627.00000000
381.47903693	1663.00000000
381.93661005	1616.00000000
382.39423600	1590.00000000
382.85191476	1654.00000000
383.30964628	1610.00000000
383.76743053	1619.00000000
384.22526746	1624.00000000
384.68315705	1590.00000000
385.14109926	1651.00000000
385.59909404	1631.00000000
386.05714137	1627.00000000
386.51524120	1634.00000000
386.97339351	1613.00000000
387.43159824	1620.00000000
387.88985537	1639.00000000
388.34816486	1646.00000000
388.80652667	1630.00000000
389.26494076	1654.00000000
389.72340710	1643.00000000
390.18192566	1641.00000000
390.64049638	1628.00000000
391.09911925	1648.00000000
391.55779422	1592.00000000
392.01652125	1657.00000000
392.47530030	1633.00000000
392.93413135	1510.00000000
393.39301436	1671.00000000
393.85194927	1645.00000000
394.31093607	1575.00000000
394.76997472	1636.00000000
395.22906517	1607.00000000
395.68820739	1575.00000000
396.14740134	1665.00000000
396.60664699	1688.00000000
397.06594429	1620.00000000
397.52529322	1658.00000000
397.98469374	1658.00000000
398.44414581	1627.00000000
398.90364938	1578.00000000
399.36320444	1663.00000000
399.82281093	1649.00000000
400.28246882	1635.00000000
400.74217808	1678.00000000
401.20193867	1623.00000000
401.66175054	1641.00000000
402.12161368	1669.00000000
402.58152803	1650.00000000
403.04149356	1625.00000000
403.50151023	1683.00000000
403.96157802	1661.00000000
404.42169687	1650.00000000
404.88186676	1628.00000000
405.34208764	1614.00000000
405.80235949	1660.00000000
406.26268226	1606.00000000
406.72305591	1624.00000000
407.18348042	1671.00000000
407.64395574	1683.00000000
408.10448183	1652.00000000
408.56505866	1585.00000000
409.02568620	1608.00000000
409.48636440	1591.00000000
409.94709324	1634.00000000
410.40787266	1626.00000000
410.86870264	1573.00000000
411.32958314	1649.00000000
411.79051412	1624.00000000
412.25149554	1517.00000000
412.71252738	1594.00000000
413.17360958	1646.00000000
413.63474212	1652.00000000
414.09592496	1667.00000000
414.55715806	1686.00000000
415.01844138	1615.00000000
415.47977490	1619.00000000
415.94115856	1669.00000000
416.40259233	1676.00000000
416.86407619	1580.00000000
417.32561008	1593.00000000
417.78719398	1659.00000000
418.24882784	1609.00000000
418.71051164	1685.00000000
419.17224533	1601.00000000
419.63402887	1677.00000000
420.09586223	1667.00000000
420.55774538	1629.00000000
421.01967827	1621.00000000
421.48166087	1655.00000000
421.94369315	1597.00000000
422.40577506	1662.00000000
422.86790657	1622.00000000
423.33008764	1519.00000000
423.79231823	1668.00000000
424.25459832	1674.00000000
424.71692786	1614.00000000
425.17930681	1646.00000000
425.64173514	1631.00000000
426.10421281	1654.00000000
426.56673978	1601.00000000
427.02931602	1533.00000000
427.49194150	1642.00000000
427.95461617	1673.00000000
428.41733999	1677.00000000
428.88011294	1682.00000000
429.34293497	1674.00000000
429.80580604	1573.00000000
430.26872613	1635.00000000
430.73169519	1679.00000000
431.19471319	1660.00000000
431.65778008	1631.00000000
432.12089584	1649.00000000
432.58406043	1655.00000000
433.04727380	1492.00000000
433.51053593	1601.00000000
433.97384677	1681.00000000
434.43720630	1637.00000000
434.90061446	1549.00000000
435.36407123	1685.00000000
435.82757657	1719.00000000
436.29113044	1638.00000000
436.75473281	1679.00000000
437.21838363	1654.00000000
437.68208288	1646.00000000
438.14583051	1703.00000000
438.60962648	1636.00000000
439.07347077	1645.00000000
439.53736333	1695.00000000
440.00130413	1656.00000000
440.46529314	1700.00000000
440.92933030	1673.00000000
441.39341559	1595.00000000
441.85754898	1664.00000000
442.32173041	1677.00000000
442.78595986	1687.00000000
443.25023730	1649.00000000
443.71456267	1641.00000000
444.17893595	1698.00000000
444.64335711	1713.00000000
445.10782609	1599.00000000
445.57234287	1665.00000000
446.03690741	1675.00000000
446.50151967	1640.00000000
446.96617962	1671.00000000
447.43088721	1647.00000000
447.89564242	1697.00000000
448.36044520	1720.00000000
448.82529553	1695.00000000
449.29019335	1721.00000000
449.75513864	1653.00000000
450.22013135	1713.00000000
450.68517146	1685.00000000
451.15025892	1645.00000000
451.61539370	1646.00000000
452.08057576	1711.00000000
452.54580506	1721.00000000
453.01108157	1708.00000000
453.47640525	1717.00000000
453.94177607	1661.00000000
454.40719398	1692.00000000
454.87265895	1675.00000000
455.33817095	1685.00000000
455.80372993	1682.00000000
456.26933586	1691.00000000
456.73498870	1674.00000000
457.20068842	1727.00000000
457.66643498	1719.00000000
458.13222835	1566.00000000
458.59806847	1443.00000000
459.06395533	1663.00000000
459.52988888	1644.00000000
459.99586908	1728.00000000
460.46189590	1733.00000000
460.92796931	1636.00000000
461.39408926	1723.00000000
461.86025571	1674.00000000
462.32646864	1710.00000000
462.79272800	1700.00000000
463.25903377	1733.00000000
463.72538589	1733.00000000
464.19178433	1692.00000000
464.65822906	1667.00000000
465.12472005	1712.00000000
465.59125725	1701.00000000
466.05784062	1724.00000000
466.52447013	1708.00000000
466.99114575	1684.00000000
467.45786744	1708.00000000
467.92463515	1694.00000000
468.39144886	1697.00000000
468.85830852	1667.00000000
469.32521410	1700.00000000
469.79216557	1729.00000000
470.25916288	1693.00000000
470.72620600	1718.00000000
471.19329489	1674.00000000
471.66042952	1698.00000000
472.12760985	1725.00000000
472.59483583	1706.00000000
473.06210745	1700.00000000
473.52942465	1746.00000000
473.99678740	1783.00000000
474.46419567	1648.00000000
474.93164941	1718.00000000
475.39914860	1726.00000000
475.86669319	1665.00000000
476.33428315	1765.00000000
476.80191844	1723.00000000
477.26959902	1750.00000000
477.73732486	1697.00000000
478.20509592	1715.00000000
478.67291216	1725.00000000
479.14077355	1737.00000000
479.60868006	1725.00000000
480.07663163	1740.00000000
480.54462824	1693.00000000
481.01266985	1738.00000000
481.48075642	1724.00000000
481.94888792	1759.00000000
482.41706430	1706.00000000
482.88528554	1728.00000000
483.35355160	1721.00000000
483.82186243	1750.00000000
484.29021801	1774.00000000
484.75861829	1735.00000000
485.22706324	1717.00000000
485.69555282	1762.00000000
486.16408699	1733.00000000
486.63266573	1728.00000000
487.10128898	1728.00000000
487.56995672	1773.00000000
488.03866891	1768.00000000
488.50742551	1724.00000000
488.97622648	1722.00000000
489.44507179	1637.00000000
489.91396139	1715.00000000
490.38289527	1684.00000000
490.85187337	1775.00000000
491.32089566	1795.00000000
491.78996210	1803.00000000
492.25907266	1740.00000000
492.72822730	1566.00000000
493.19742598	1778.00000000
493.66666867	1783.00000000
494.13595533	1782.00000000
494.60528591	1773.00000000
495.07466040	1794.00000000
495.54407874	1767.00000000
496.01354091	1782.00000000
496.48304686	1763.00000000
496.95259656	1791.00000000
497.42218997	1810.00000000
497.89182706	1721.00000000
498.36150779	1795.00000000
498.83123211	1782.00000000
499.30100000	1773.00000000
499.77081142	1816.00000000
500.24066633	1821.00000000
500.71056469	1776.00000000
501.18050648	1782.00000000
501.65049164	1821.00000000
502.12052014	1821.00000000
502.59059195	1832.00000000
503.06070704	1800.00000000
503.53086535	1731.00000000
504.00106686	1685.00000000
504.47131154	1814.00000000
504.94159933	1811.00000000
505.41193021	1795.00000000
505.88230414	1860.00000000
506.35272109	1878.00000000
506.82318101	1890.00000000
507.29368386	1856.00000000
507.76422962	1890.00000000
508.23481825	1886.00000000
508.70544970	1854.00000000
509.17612395	1838.00000000
509.64684095	1890.00000000
510.11760067	1900.00000000
510.58840307	1910.00000000
511.05924812	1892.00000000
511.53013577	1915.00000000
512.00106600	1905.00000000
512.47203875	1926.00000000
512.94305401	1892.00000000
513.41411173	1901.00000000
513.88521187	1920.00000000
514.35635440	1912.00000000
514.82753927	1845.00000000
515.29876647	1866.00000000
515.77003593	1919.00000000
516.24134764	1856.00000000
516.71270155	1933.00000000
517.18409763	1950.00000000
517.65553584	1935.00000000
518.12701614	1924.00000000
518.59853850	1960.00000000
519.07010287	1839.00000000
519.54170923	1933.00000000
520.01335753	1863.00000000
520.48504774	1939.00000000
520.95677983	1946.00000000
521.42855375	1912.00000000
521.90036946	1922.00000000
522.37222694	1917.00000000
522.84412615	1916.00000000
523.31606704	1958.00000000
523.78804958	1952.00000000
524.26007374	1944.00000000
524.73213947	1959.00000000
525.20424675	1947.00000000
525.67639553	1946.00000000
526.14858578	1988.00000000
526.62081745	1903.00000000
527.09309052	1947.00000000
527.56540495	1976.00000000
528.03776070	1949.00000000
528.51015773	1941.00000000
528.98259601	1968.00000000
529.45507550	1929.00000000
529.92759616	1965.00000000
530.40015795	1942.00000000
530.87276085	1955.00000000
531.34540481	1975.00000000
531.81808979	1946.00000000
532.29081576	1936.00000000
532.76358269	1963.00000000
533.23639053	1952.00000000
533.70923924	1924.00000000
534.18212880	1975.00000000
534.65505917	2004.00000000
535.12803030	1984.00000000
535.60104217	1992.00000000
536.07409473	1976.00000000
536.54718794	1972.00000000
537.02032178	1976.00000000
537.49349620	1661.00000000
537.96671117	1985.00000000
538.43996665	2022.00000000
538.91326261	1987.00000000
539.38659900	1896.00000000
539.85997579	2005.00000000
540.33339294	2025.00000000
540.80685042	1923.00000000
541.28034819	2003.00000000
541.75388622	2017.00000000
542.22746446	1958.00000000
542.70108287	1990.00000000
543.17474144	2024.00000000
543.64844010	2030.00000000
544.12217884	1955.00000000
544.59595761	1991.00000000
545.06977637	2035.00000000
545.54363510	2027.00000000
546.01753374	2025.00000000
546.49147227	2007.00000000
546.96545065	2027.00000000
547.43946884	2028.00000000
547.91352680	1996.00000000
548.38762450	1976.00000000
548.86176191	1907.00000000
549.33593897	2041.00000000
549.81015567	1947.00000000
550.28441195	1988.00000000
550.75870779	2015.00000000
551.23304315	1848.00000000
551.70741799	2046.00000000
552.18183227	2037.00000000
552.65628595	2024.00000000
553.13077901	2006.00000000
553.60531140	1986.00000000
554.07988309	2019.00000000
554.55449403	2023.00000000
555.02914420	2037.00000000
555.50383356	2069.00000000
555.97856206	2051.00000000
556.45332968	1980.00000000
556.92813637	1961.00000000
557.40298210	2009.00000000
557.87786683	2013.00000000
558.35279053	2033.00000000
558.82775315	1990.00000000
559.30275467	2067.00000000
559.77779504	2051.00000000
560.25287423	2051.00000000
560.72799221	1985.00000000
561.20314892	2098.00000000
561.67834435	2037.00000000
562.15357844	2066.00000000
562.62885117	2056.00000000
563.10416249	2083.00000000
563.57951238	2048.00000000
564.05490079	2055.00000000
564.53032769	2059.00000000
565.00579303	2108.00000000
565.48129679	2036.00000000
565.95683893	2094.00000000
566.43241940	2086.00000000
566.90803818	2011.00000000
567.38369523	2086.00000000
567.85939050	2016.00000000
568.33512397	2080.00000000
568.81089559	2099.00000000
569.28670533	2104.00000000
569.76255316	2092.00000000
570.23843902	2059.00000000
570.71436290	2083.00000000
571.19032475	2104.00000000
571.66632453	2093.00000000
572.14236222	2102.00000000
572.61843776	2090.00000000
573.09455113	2024.00000000
573.57070228	2083.00000000
574.04689119	2096.00000000
574.52311781	2073.00000000
574.99938211	2071.00000000
575.47568405	2141.00000000
575.95202359	2125.00000000
576.42840070	1933.00000000
576.90481534	2137.00000000
577.38126747	2071.00000000
577.85775706	2148.00000000
578.33428407	2165.00000000
578.81084846	2165.00000000
579.28745020	2132.00000000
579.76408925	2112.00000000
580.24076557	2191.00000000
580.71747912	2043.00000000
581.19422988	2165.00000000
581.67101780	2148.00000000
582.14784284	2201.00000000
582.62470497	2153.00000000
583.10160416	2159.00000000
583.57854035	2177.00000000
584.05551353	2108.00000000
584.53252365	2200.00000000
585.00957067	2196.00000000
585.48665456	2200.00000000
585.96377529	2212.00000000
586.44093280	2235.00000000
586.91812708	2194.00000000
587.39535807	2225.00000000
587.87262575	2203.00000000
588.34993007	2173.00000000
588.82727101	2150.00000000
589.30464852	2204.00000000
589.78206256	2226.00000000
590.25951311	2244.00000000
590.73700012	2211.00000000
591.21452355	2198.00000000
591.69208338	2164.00000000
592.16967956	2245.00000000
592.64731205	2186.00000000
593.12498082	2224.00000000
593.60268584	2271.00000000
594.08042706	2202.00000000
594.55820445	2226.00000000
595.03601797	2168.00000000
595.51386759	2239.00000000
595.99175326	2255.00000000
596.46967496	2199.00000000
596.94763264	2252.00000000
597.42562627	2225.00000000
597.90365581	2187.00000000
598.38172122	2213.00000000
598.85982248	2255.00000000
599.33795953	2168.00000000
599.81613235	2146.00000000
600.29434089	2251.00000000
600.77258513	2168.00000000
601.25086501	2316.00000000
601.72918052	2275.00000000
602.20753161	2301.00000000
602.68591823	2296.00000000
603.16434037	2306.00000000
603.64279797	2227.00000000
604.12129101	2259.00000000
604.59981945	2291.00000000
605.07838324	2305.00000000
605.55698236	2285.00000000
606.03561676	2274.00000000
606.51428641	2316.00000000
606.99299127	2300.00000000
607.47173131	2289.00000000
607.95050648	2301.00000000
608.42931676	2348.00000000
608.90816210	2339.00000000
609.38704248	2321.00000000
609.86595784	2324.00000000
610.34490816	2284.00000000
610.82389339	2332.00000000
611.30291351	2275.00000000
611.78196847	2323.00000000
612.26105823	2268.00000000
612.74018277	2315.00000000
613.21934204	2312.00000000
613.69853601	2330.00000000
614.17776464	2248.00000000
614.65702789	2326.00000000
615.13632573	2295.00000000
615.61565812	2313.00000000
616.09502502	2364.00000000
616.57442640	2300.00000000
617.05386221	2149.00000000
617.53333243	2258.00000000
618.01283702	2242.00000000
618.49237593	2332.00000000
618.97194914	2353.00000000
619.45155660	2272.00000000
619.93119828	2376.00000000
620.41087415	2349.00000000
620.89058415	2344.00000000
621.37032827	2311.00000000
621.85010646	2345.00000000
622.32991868	2308.00000000
622.80976490	2331.00000000
623.28964508	2343.00000000
623.76955919	2334.00000000
624.24950718	2353.00000000
624.72948902	2392.00000000
625.20950468	2383.00000000
625.68955412	2319.00000000
626.16963729	2288.00000000
626.64975417	2373.00000000
627.12990471	2380.00000000
627.61008889	2306.00000000
628.09030666	2414.00000000
628.57055798	2323.00000000
629.05084283	2402.00000000
629.53116115	2391.00000000
630.01151293	2367.00000000
630.49189811	2357.00000000
630.97231666	2347.00000000
631.45276855	2389.00000000
631.93325374	2359.00000000
632.41377219	2348.00000000
632.89432387	2321.00000000
633.37490873	2373.00000000
633.85552675	2349.00000000
634.33617788	2385.00000000
634.81686209	2354.00000000
635.29757934	2385.00000000
635.77832959	2374.00000000
636.25911281	2377.00000000
636.73992897	2392.00000000
637.22077801	2226.00000000
637.70165992	2401.00000000
638.18257464	2366.00000000
638.66352215	2343.00000000
639.14450240	2367.00000000
639.62551537	2335.00000000
640.10656101	2391.00000000
640.58763928	2343.00000000
641.06875016	2343.00000000
641.54989359	2378.00000000
642.03106956	2335.00000000
642.51227801	2377.00000000
642.99351892	2389.00000000
643.47479224	2162.00000000
643.95609794	2364.00000000
644.43743598	2310.00000000
644.91880633	2370.00000000
645.40020894	2348.00000000
645.88164379	2319.00000000
646.36311083	2397.00000000
646.84461003	2379.00000000
647.32614135	2381.00000000
647.80770476	2385.00000000
648.28930022	2402.00000000
648.77092768	2366.00000000
649.25258712	2326.00000000
649.73427850	2356.00000000
650.21600177	2335.00000000
650.69775691	2388.00000000
651.17954388	2371.00000000
651.66136264	2351.00000000
652.14321315	2400.00000000
652.62509538	2391.00000000
653.10700929	2338.00000000
653.58895484	2361.00000000
654.07093200	2410.00000000
654.55294072	2405.00000000
655.03498098	2398.00000000
655.51705274	2342.00000000
655.99915595	2364.00000000
656.48129059	2361.00000000
656.96345661	2337.00000000
657.44565398	2369.00000000
657.92788266	2352.00000000
658.41014262	2372.00000000
658.89243382	2374.00000000
659.37475621	2335.00000000
659.85710978	2359.00000000
660.33949447	2364.00000000
660.82191025	2328.00000000
661.30435708	2359.00000000
661.78683493	2353.00000000
662.26934377	2333.00000000
662.75188354	2368.00000000
663.23445423	2245.00000000
663.71705578	2314.00000000
664.19968817	2371.00000000
664.68235136	2344.00000000
665.16504530	2333.00000000
665.64776997	2295.00000000
666.13052532	2329.00000000
666.61331133	2322.00000000
667.09612794	2298.00000000
667.57897514	2330.00000000
668.06185287	2296.00000000
668.54476110	2292.00000000
669.02769980	2276.00000000
669.51066893	2314.00000000
669.99366845	2345.00000000
670.47669833	2343.00000000
670.95975852	2361.00000000
671.44284900	2315.00000000
671.92596972	2277.00000000
672.40912065	2349.00000000
672.89230175	2372.00000000
673.37551298	2331.00000000
673.85875431	2380.00000000
674.34202570	2347.00000000
674.82532712	2320.00000000
675.30865852	2354.00000000
675.79201988	2330.00000000
676.27541115	2358.00000000
676.75883229	2344.00000000
677.24228328	2368.00000000
677.72576406	2355.00000000
678.20927462	2395.00000000
678.69281490	2265.00000000
679.17638488	2330.00000000
679.65998451	2375.00000000
680.14361377	2371.00000000
680.62727260	2394.00000000
681.11096098	2361.00000000
681.59467887	2357.00000000
682.07842623	2337.00000000
682.56220303	2391.00000000
683.04600923	2282.00000000
683.52984478	2340.00000000
684.01370967	2347.00000000
684.49760384	2396.00000000
684.98152726	2397.00000000
685.46547989	2337.00000000
685.94946171	2385.00000000
686.43347266	2387.00000000
686.91751272	2411.00000000
687.40158185	2368.00000000
687.88568001	2401.00000000
688.36980716	2379.00000000
688.85396327	2377.00000000
689.33814829	2395.00000000
689.82236221	2405.00000000
690.30660496	2404.00000000
690.79087653	2396.00000000
691.27517687	2358.00000000
691.75950595	2404.00000000
692.24386373	2365.00000000
692.72825017	2423.00000000
693.21266523	2358.00000000
693.69710889	2341.00000000
694.18158109	2343.00000000
694.66608181	2364.00000000
695.15061101	2273.00000000
695.63516866	2338.00000000
696.11975470	2349.00000000
696.60436912	2382.00000000
697.08901187	2318.00000000
697.57368291	2354.00000000
698.05838221	2308.00000000
698.54310973	2354.00000000
699.02786544	2297.00000000
699.51264929	2362.00000000
699.99746125	2376.00000000
700.48230129	2387.00000000
700.96716936	2340.00000000
701.45206544	2362.00000000
701.93698948	2333.00000000
702.42194144	2347.00000000
702.90692130	2372.00000000
703.39192900	2288.00000000
703.87696453	2410.00000000
704.36202783	2390.00000000
704.84711888	2380.00000000
705.33223763	2379.00000000
705.81738405	2361.00000000
706.30255811	2404.00000000
706.78775976	2358.00000000
707.27298897	2359.00000000
707.75824570	2368.00000000
708.24352991	2313.00000000
708.72884158	2361.00000000
709.21418065	2369.00000000
709.69954710	2265.00000000
710.18494089	2380.00000000
710.67036198	2353.00000000
711.15581034	2361.00000000
711.64128592	2372.00000000
712.12678869	2386.00000000
712.61231862	2373.00000000
713.09787566	2315.00000000
713.58345979	2382.00000000
714.06907095	2374.00000000
714.55470913	2341.00000000
715.04037427	2361.00000000
715.52606635	2352.00000000
716.01178533	2372.00000000
716.49753116	2383.00000000
716.98330382	2378.00000000
717.46910326	2243.00000000
717.95492946	2312.00000000
718.44078236	2345.00000000
718.92666194	2361.00000000
719.41256816	2351.00000000
719.89850098	2332.00000000
720.38446037	2281.00000000
720.87044629	2335.00000000
721.35645870	2283.00000000
721.84249756	2349.00000000
722.32856284	2348.00000000
722.81465450	2333.00000000
723.30077251	2280.00000000
723.78691682	2314.00000000
724.27308741	2293.00000000
724.75928423	2311.00000000
725.24550724	2263.00000000
725.73175642	2290.00000000
726.21803172	2331.00000000
726.70433311	2319.00000000
727.19066055	2222.00000000
727.67701400	2279.00000000
728.16339343	2336.00000000
728.64979880	2312.00000000
729.13623007	2268.00000000
729.62268721	2307.00000000
730.10917018	2224.00000000
730.59567893	2278.00000000
731.08221345	2284.00000000
731.56877369	2272.00000000
732.05535960	2313.00000000
732.54197116	2318.00000000
733.02860834	2290.00000000
733.51527108	2266.00000000
734.00195936	2247.00000000
734.48867313	2284.00000000
734.97541237	2268.00000000
735.46217703	2319.00000000
735.94896708	2258.00000000
736.43578248	2325.00000000
736.92262320	2319.00000000
737.40948919	2305.00000000
737.89638043	2311.00000000
738.38329686	2308.00000000
738.87023847	2285.00000000
739.35720520	2233.00000000
739.84419703	2300.00000000
740.33121392	2316.00000000
740.81825582	2262.00000000
741.30532271	2158.00000000
741.79241455	2250.00000000
742.27953129	2281.00000000
742.76667291	2327.00000000
743.25383936	2314.00000000
743.74103061	2284.00000000
744.22824663	2314.00000000
744.71548737	2274.00000000
745.20275280	2184.00000000
745.69004288	2298.00000000
746.17735758	2287.00000000
746.66469685	2300.00000000
747.15206067	2249.00000000
747.63944899	2288.00000000
748.12686178	2266.00000000
748.61429900	2127.00000000
749.10176061	2275.00000000
749.58924659	2278.00000000
750.07675688	2286.00000000
750.56429146	2286.00000000
751.05185028	2222.00000000
751.53943332	2237.00000000
752.02704053	2141.00000000
752.51467187	2157.00000000
753.00232732	2179.00000000
753.49000683	2235.00000000
753.97771036	2262.00000000
754.46543789	2211.00000000
754.95318936	2242.00000000
755.44096476	2256.00000000
755.92876403	2226.00000000
756.41658715	2222.00000000
756.90443407	2263.00000000
757.39230476	2199.00000000
757.88019918	2171.00000000
758.36811730	2243.00000000
758.85605908	2227.00000000
759.34402448	2216.00000000
759.83201346	2155.00000000
760.32002599	2162.00000000
760.80806203	2053.00000000
761.29612155	2141.00000000
761.78420451	2190.00000000
762.27231086	2194.00000000
762.76044058	2221.00000000
763.24859363	2186.00000000
763.73676997	2151.00000000
764.22496956	2157.00000000
764.71319237	2183.00000000
765.20143836	2191.00000000
765.68970749	2191.00000000
766.17799973	2063.00000000
766.66631504	2118.00000000
767.15465338	2151.00000000
767.64301472	2126.00000000
768.13139902	2140.00000000
768.61980624	2165.00000000
769.10823635	2165.00000000
769.59668930	2140.00000000
770.08516507	2159.00000000
770.57366361	2124.00000000
771.06218489	2162.00000000
771.55072888	2118.00000000
772.03929553	2125.00000000
772.52788480	2157.00000000
773.01649667	2148.00000000
773.50513109	2074.00000000
773.99378804	2159.00000000
774.48246746	2145.00000000
774.97116932	2113.00000000
775.45989360	2128.00000000
775.94864024	2148.00000000
776.43740922	2097.00000000
776.92620050	2135.00000000
777.41501403	2070.00000000
777.90384979	2142.00000000
778.39270774	2103.00000000
778.88158784	2114.00000000
779.37049004	2127.00000000
779.85941433	2012.00000000
780.34836066	2099.00000000
780.83732898	2132.00000000
781.32631928	2124.00000000
781.81533150	2056.00000000
782.30436562	2044.00000000
782.79342159	2119.00000000
783.28249938	2103.00000000
783.77159895	2078.00000000
784.26072027	2069.00000000
784.74986329	2101.00000000
785.23902799	2084.00000000
785.72821432	1969.00000000
786.21742225	2102.00000000
786.70665174	1990.00000000
787.19590276	2069.00000000
787.68517526	2074.00000000
788.17446922	1887.00000000
788.66378459	2037.00000000
789.15312133	2012.00000000
789.64247942	2078.00000000
790.13185881	2079.00000000
790.62125947	2102.00000000
791.11068135	2052.00000000
791.60012443	2066.00000000
792.08958867	2007.00000000
792.57907402	2070.00000000
793.06858046	1997.00000000
793.55810795	2047.00000000
794.04765644	2029.00000000
794.53722591	2031.00000000
795.02681631	2038.00000000
795.51642762	2041.00000000
796.00605978	2048.00000000
796.49571277	2046.00000000
796.98538655	2037.00000000
797.47508108	2075.00000000
797.96479632	2017.00000000
798.45453224	2039.00000000
798.94428881	2008.00000000
799.43406597	2009.00000000
799.92386371	2007.00000000
800.41368198	1906.00000000
800.90352074	2036.00000000
801.39337996	1991.00000000
801.88325960	1915.00000000
802.37315962	1999.00000000
802.86307999	2003.00000000
803.35302067	2020.00000000
803.84298163	1995.00000000
804.33296282	1954.00000000
804.82296421	2003.00000000
805.31298576	1986.00000000
805.80302744	1987.00000000
806.29308921	1771.00000000
806.78317103	1983.00000000
807.27327287	1984.00000000
807.76339468	1957.00000000
808.25353644	2011.00000000
808.74369811	1995.00000000
809.23387964	1930.00000000
809.72408100	1966.00000000
810.21430216	1937.00000000
810.70454308	1975.00000000
811.19480372	1945.00000000
811.68508405	1960.00000000
812.17538402	1988.00000000
812.66570360	1970.00000000
813.15604276	1981.00000000
813.64640146	1939.00000000
814.13677965	1967.00000000
814.62717731	1987.00000000
815.11759440	1933.00000000
815.60803088	1985.00000000
816.09848671	1979.00000000
816.58896185	1944.00000000
817.07945628	1963.00000000
817.56996995	1872.00000000
818.06050283	1974.00000000
818.55105488	1956.00000000
819.04162606	1939.00000000
819.53221633	1985.00000000
820.02282567	2000.00000000
820.51345402	1981.00000000
821.00410137	1947.00000000
821.49476766	1875.00000000
821.98545286	1946.00000000
822.47615694	1958.00000000
822.96687986	1968.00000000

