Saved at time: 20877947 milliseconds
Integration time: 1500000
Scans to average: 0
Boxcar smoothing: 0
Wavelengths	Intensities
337.35134888	1661.00000000
337.80362194	1674.00000000
338.25595141	1685.00000000
338.70833725	1669.00000000
339.16077942	1646.00000000
339.61327788	1628.00000000
340.06583261	1656.00000000
340.51844356	1590.00000000
340.97111069	1605.00000000
341.42383397	1585.00000000
341.87661336	1564.00000000
342.32944883	1604.00000000
342.78234033	1614.00000000
343.23528784	1623.00000000
343.68829131	1664.00000000
344.14135070	1627.00000000
344.59446599	1656.00000000
345.04763714	1615.00000000
345.50086410	1594.00000000
345.95414684	1669.00000000
346.40748532	1620.00000000
346.86087951	1622.00000000
347.31432937	1643.00000000
347.76783486	1675.00000000
348.22139595	1629.00000000
348.67501260	1630.00000000
349.12868478	1650.00000000
349.58241244	1622.00000000
350.03619554	1661.00000000
350.49003406	1640.00000000
350.94392796	1631.00000000
351.39787720	1600.00000000
351.85188173	1627.00000000
352.30594153	1588.00000000
352.76005657	1615.00000000
353.21422679	1601.00000000
353.66845217	1644.00000000
354.12273266	1595.00000000
354.57706824	1605.00000000
355.03145886	1620.00000000
355.48590449	1645.00000000
355.94040509	1643.00000000
356.39496062	1623.00000000
356.84957105	1627.00000000
357.30423634	1646.00000000
357.75895646	1649.00000000
358.21373136	1616.00000000
358.66856102	1588.00000000
359.12344538	1641.00000000
359.57838442	1657.00000000
360.03337811	1564.00000000
360.48842639	1647.00000000
360.94352924	1580.00000000
361.39868662	1635.00000000
361.85389850	1635.00000000
362.30916483	1639.00000000
362.76448558	1656.00000000
363.21986071	1590.00000000
363.67529018	1609.00000000
364.13077397	1650.00000000
364.58631202	1639.00000000
365.04190431	1595.00000000
365.49755080	1573.00000000
365.95325145	1665.00000000
366.40900623	1593.00000000
366.86481509	1637.00000000
367.32067801	1663.00000000
367.77659494	1639.00000000
368.23256584	1661.00000000
368.68859069	1637.00000000
369.14466944	1604.00000000
369.60080206	1648.00000000
370.05698851	1601.00000000
370.51322875	1555.00000000
370.96952275	1602.00000000
371.42587047	1664.00000000
371.88227187	1662.00000000
372.33872691	1665.00000000
372.79523557	1594.00000000
373.25179780	1582.00000000
373.70841357	1631.00000000
374.16508283	1632.00000000
374.62180556	1641.00000000
375.07858171	1654.00000000
375.53541125	1663.00000000
375.99229415	1658.00000000
376.44923035	1558.00000000
376.90621984	1603.00000000
377.36326257	1660.00000000
377.82035850	1605.00000000
378.27750760	1621.00000000
378.73470984	1329.00000000
379.19196516	1609.00000000
379.64927355	1653.00000000
380.10663495	1514.00000000
380.56404934	1606.00000000
381.02151668	1630.00000000
381.47903693	1666.00000000
381.93661005	1619.00000000
382.39423600	1593.00000000
382.85191476	1653.00000000
383.30964628	1614.00000000
383.76743053	1619.00000000
384.22526746	1627.00000000
384.68315705	1596.00000000
385.14109926	1656.00000000
385.59909404	1626.00000000
386.05714137	1632.00000000
386.51524120	1640.00000000
386.97339351	1616.00000000
387.43159824	1617.00000000
387.88985537	1638.00000000
388.34816486	1644.00000000
388.80652667	1631.00000000
389.26494076	1652.00000000
389.72340710	1650.00000000
390.18192566	1645.00000000
390.64049638	1631.00000000
391.09911925	1646.00000000
391.55779422	1596.00000000
392.01652125	1660.00000000
392.47530030	1634.00000000
392.93413135	1511.00000000
393.39301436	1674.00000000
393.85194927	1649.00000000
394.31093607	1578.00000000
394.76997472	1636.00000000
395.22906517	1613.00000000
395.68820739	1579.00000000
396.14740134	1668.00000000
396.60664699	1689.00000000
397.06594429	1626.00000000
397.52529322	1662.00000000
397.98469374	1663.00000000
398.44414581	1636.00000000
398.90364938	1587.00000000
399.36320444	1663.00000000
399.82281093	1654.00000000
400.28246882	1635.00000000
400.74217808	1683.00000000
401.20193867	1630.00000000
401.66175054	1649.00000000
402.12161368	1678.00000000
402.58152803	1651.00000000
403.04149356	1634.00000000
403.50151023	1691.00000000
403.96157802	1662.00000000
404.42169687	1654.00000000
404.88186676	1631.00000000
405.34208764	1621.00000000
405.80235949	1665.00000000
406.26268226	1614.00000000
406.72305591	1627.00000000
407.18348042	1673.00000000
407.64395574	1688.00000000
408.10448183	1662.00000000
408.56505866	1593.00000000
409.02568620	1614.00000000
409.48636440	1600.00000000
409.94709324	1642.00000000
410.40787266	1634.00000000
410.86870264	1579.00000000
411.32958314	1656.00000000
411.79051412	1628.00000000
412.25149554	1529.00000000
412.71252738	1604.00000000
413.17360958	1654.00000000
413.63474212	1661.00000000
414.09592496	1672.00000000
414.55715806	1697.00000000
415.01844138	1627.00000000
415.47977490	1623.00000000
415.94115856	1671.00000000
416.40259233	1687.00000000
416.86407619	1590.00000000
417.32561008	1600.00000000
417.78719398	1667.00000000
418.24882784	1620.00000000
418.71051164	1699.00000000
419.17224533	1612.00000000
419.63402887	1682.00000000
420.09586223	1680.00000000
420.55774538	1639.00000000
421.01967827	1632.00000000
421.48166087	1665.00000000
421.94369315	1611.00000000
422.40577506	1673.00000000
422.86790657	1642.00000000
423.33008764	1531.00000000
423.79231823	1682.00000000
424.25459832	1685.00000000
424.71692786	1624.00000000
425.17930681	1661.00000000
425.64173514	1646.00000000
426.10421281	1670.00000000
426.56673978	1621.00000000
427.02931602	1551.00000000
427.49194150	1656.00000000
427.95461617	1690.00000000
428.41733999	1694.00000000
428.88011294	1697.00000000
429.34293497	1692.00000000
429.80580604	1591.00000000
430.26872613	1650.00000000
430.73169519	1698.00000000
431.19471319	1670.00000000
431.65778008	1648.00000000
432.12089584	1663.00000000
432.58406043	1674.00000000
433.04727380	1519.00000000
433.51053593	1620.00000000
433.97384677	1700.00000000
434.43720630	1653.00000000
434.90061446	1574.00000000
435.36407123	1705.00000000
435.82757657	1738.00000000
436.29113044	1659.00000000
436.75473281	1698.00000000
437.21838363	1680.00000000
437.68208288	1662.00000000
438.14583051	1727.00000000
438.60962648	1657.00000000
439.07347077	1665.00000000
439.53736333	1718.00000000
440.00130413	1680.00000000
440.46529314	1722.00000000
440.92933030	1701.00000000
441.39341559	1624.00000000
441.85754898	1688.00000000
442.32173041	1699.00000000
442.78595986	1705.00000000
443.25023730	1672.00000000
443.71456267	1671.00000000
444.17893595	1727.00000000
444.64335711	1736.00000000
445.10782609	1631.00000000
445.57234287	1694.00000000
446.03690741	1710.00000000
446.50151967	1672.00000000
446.96617962	1704.00000000
447.43088721	1682.00000000
447.89564242	1741.00000000
448.36044520	1759.00000000
448.82529553	1734.00000000
449.29019335	1758.00000000
449.75513864	1689.00000000
450.22013135	1750.00000000
450.68517146	1729.00000000
451.15025892	1687.00000000
451.61539370	1692.00000000
452.08057576	1755.00000000
452.54580506	1767.00000000
453.01108157	1747.00000000
453.47640525	1760.00000000
453.94177607	1709.00000000
454.40719398	1740.00000000
454.87265895	1721.00000000
455.33817095	1729.00000000
455.80372993	1732.00000000
456.26933586	1741.00000000
456.73498870	1723.00000000
457.20068842	1776.00000000
457.66643498	1764.00000000
458.13222835	1622.00000000
458.59806847	1504.00000000
459.06395533	1720.00000000
459.52988888	1703.00000000
459.99586908	1778.00000000
460.46189590	1789.00000000
460.92796931	1694.00000000
461.39408926	1782.00000000
461.86025571	1728.00000000
462.32646864	1768.00000000
462.79272800	1760.00000000
463.25903377	1785.00000000
463.72538589	1792.00000000
464.19178433	1749.00000000
464.65822906	1723.00000000
465.12472005	1765.00000000
465.59125725	1760.00000000
466.05784062	1782.00000000
466.52447013	1765.00000000
466.99114575	1739.00000000
467.45786744	1759.00000000
467.92463515	1756.00000000
468.39144886	1755.00000000
468.85830852	1723.00000000
469.32521410	1761.00000000
469.79216557	1792.00000000
470.25916288	1758.00000000
470.72620600	1778.00000000
471.19329489	1741.00000000
471.66042952	1767.00000000
472.12760985	1794.00000000
472.59483583	1788.00000000
473.06210745	1776.00000000
473.52942465	1817.00000000
473.99678740	1854.00000000
474.46419567	1734.00000000
474.93164941	1798.00000000
475.39914860	1804.00000000
475.86669319	1749.00000000
476.33428315	1854.00000000
476.80191844	1809.00000000
477.26959902	1833.00000000
477.73732486	1786.00000000
478.20509592	1800.00000000
478.67291216	1820.00000000
479.14077355	1829.00000000
479.60868006	1815.00000000
480.07663163	1828.00000000
480.54462824	1789.00000000
481.01266985	1835.00000000
481.48075642	1812.00000000
481.94888792	1850.00000000
482.41706430	1798.00000000
482.88528554	1818.00000000
483.35355160	1816.00000000
483.82186243	1844.00000000
484.29021801	1867.00000000
484.75861829	1830.00000000
485.22706324	1811.00000000
485.69555282	1870.00000000
486.16408699	1842.00000000
486.63266573	1835.00000000
487.10128898	1835.00000000
487.56995672	1880.00000000
488.03866891	1882.00000000
488.50742551	1844.00000000
488.97622648	1839.00000000
489.44507179	1766.00000000
489.91396139	1844.00000000
490.38289527	1812.00000000
490.85187337	1912.00000000
491.32089566	1922.00000000
491.78996210	1937.00000000
492.25907266	1876.00000000
492.72822730	1707.00000000
493.19742598	1919.00000000
493.66666867	1921.00000000
494.13595533	1921.00000000
494.60528591	1914.00000000
495.07466040	1939.00000000
495.54407874	1905.00000000
496.01354091	1930.00000000
496.48304686	1905.00000000
496.95259656	1931.00000000
497.42218997	1952.00000000
497.89182706	1860.00000000
498.36150779	1936.00000000
498.83123211	1928.00000000
499.30100000	1920.00000000
499.77081142	1963.00000000
500.24066633	1978.00000000
500.71056469	1934.00000000
501.18050648	1933.00000000
501.65049164	1982.00000000
502.12052014	1978.00000000
502.59059195	2000.00000000
503.06070704	1971.00000000
503.53086535	1901.00000000
504.00106686	1852.00000000
504.47131154	1992.00000000
504.94159933	1987.00000000
505.41193021	1979.00000000
505.88230414	2045.00000000
506.35272109	2072.00000000
506.82318101	2082.00000000
507.29368386	2051.00000000
507.76422962	2092.00000000
508.23481825	2092.00000000
508.70544970	2054.00000000
509.17612395	2050.00000000
509.64684095	2088.00000000
510.11760067	2117.00000000
510.58840307	2126.00000000
511.05924812	2110.00000000
511.53013577	2131.00000000
512.00106600	2127.00000000
512.47203875	2155.00000000
512.94305401	2117.00000000
513.41411173	2129.00000000
513.88521187	2148.00000000
514.35635440	2145.00000000
514.82753927	2083.00000000
515.29876647	2102.00000000
515.77003593	2154.00000000
516.24134764	2093.00000000
516.71270155	2174.00000000
517.18409763	2198.00000000
517.65553584	2187.00000000
518.12701614	2175.00000000
518.59853850	2217.00000000
519.07010287	2100.00000000
519.54170923	2195.00000000
520.01335753	2120.00000000
520.48504774	2212.00000000
520.95677983	2215.00000000
521.42855375	2179.00000000
521.90036946	2196.00000000
522.37222694	2188.00000000
522.84412615	2195.00000000
523.31606704	2232.00000000
523.78804958	2229.00000000
524.26007374	2217.00000000
524.73213947	2242.00000000
525.20424675	2218.00000000
525.67639553	2226.00000000
526.14858578	2270.00000000
526.62081745	2182.00000000
527.09309052	2227.00000000
527.56540495	2257.00000000
528.03776070	2233.00000000
528.51015773	2223.00000000
528.98259601	2250.00000000
529.45507550	2211.00000000
529.92759616	2245.00000000
530.40015795	2221.00000000
530.87276085	2231.00000000
531.34540481	2257.00000000
531.81808979	2229.00000000
532.29081576	2215.00000000
532.76358269	2247.00000000
533.23639053	2248.00000000
533.70923924	2217.00000000
534.18212880	2268.00000000
534.65505917	2295.00000000
535.12803030	2279.00000000
535.60104217	2292.00000000
536.07409473	2276.00000000
536.54718794	2280.00000000
537.02032178	2286.00000000
537.49349620	1978.00000000
537.96671117	2284.00000000
538.43996665	2336.00000000
538.91326261	2309.00000000
539.38659900	2211.00000000
539.85997579	2319.00000000
540.33339294	2340.00000000
540.80685042	2245.00000000
541.28034819	2327.00000000
541.75388622	2342.00000000
542.22746446	2255.00000000
542.70108287	2268.00000000
543.17474144	2340.00000000
543.64844010	2347.00000000
544.12217884	2276.00000000
544.59595761	2317.00000000
545.06977637	2358.00000000
545.54363510	2355.00000000
546.01753374	2344.00000000
546.49147227	2334.00000000
546.96545065	2344.00000000
547.43946884	2347.00000000
547.91352680	2308.00000000
548.38762450	2294.00000000
548.86176191	2229.00000000
549.33593897	2357.00000000
549.81015567	2269.00000000
550.28441195	2313.00000000
550.75870779	2335.00000000
551.23304315	2168.00000000
551.70741799	2366.00000000
552.18183227	2366.00000000
552.65628595	2352.00000000
553.13077901	2335.00000000
553.60531140	2318.00000000
554.07988309	2350.00000000
554.55449403	2354.00000000
555.02914420	2377.00000000
555.50383356	2404.00000000
555.97856206	2399.00000000
556.45332968	2316.00000000
556.92813637	2314.00000000
557.40298210	2364.00000000
557.87786683	2364.00000000
558.35279053	2381.00000000
558.82775315	2336.00000000
559.30275467	2415.00000000
559.77779504	2405.00000000
560.25287423	2402.00000000
560.72799221	2342.00000000
561.20314892	2458.00000000
561.67834435	2393.00000000
562.15357844	2426.00000000
562.62885117	2420.00000000
563.10416249	2438.00000000
563.57951238	2419.00000000
564.05490079	2419.00000000
564.53032769	2419.00000000
565.00579303	2472.00000000
565.48129679	2396.00000000
565.95683893	2458.00000000
566.43241940	2454.00000000
566.90803818	2364.00000000
567.38369523	2442.00000000
567.85939050	2374.00000000
568.33512397	2435.00000000
568.81089559	2455.00000000
569.28670533	2452.00000000
569.76255316	2452.00000000
570.23843902	2422.00000000
570.71436290	2443.00000000
571.19032475	2468.00000000
571.66632453	2461.00000000
572.14236222	2464.00000000
572.61843776	2462.00000000
573.09455113	2390.00000000
573.57070228	2456.00000000
574.04689119	2469.00000000
574.52311781	2448.00000000
574.99938211	2455.00000000
575.47568405	2526.00000000
575.95202359	2514.00000000
576.42840070	2325.00000000
576.90481534	2529.00000000
577.38126747	2479.00000000
577.85775706	2555.00000000
578.33428407	2575.00000000
578.81084846	2579.00000000
579.28745020	2549.00000000
579.76408925	2544.00000000
580.24076557	2620.00000000
580.71747912	2469.00000000
581.19422988	2589.00000000
581.67101780	2578.00000000
582.14784284	2636.00000000
582.62470497	2592.00000000
583.10160416	2603.00000000
583.57854035	2615.00000000
584.05551353	2552.00000000
584.53252365	2643.00000000
585.00957067	2646.00000000
585.48665456	2654.00000000
585.96377529	2652.00000000
586.44093280	2692.00000000
586.91812708	2651.00000000
587.39535807	2677.00000000
587.87262575	2651.00000000
588.34993007	2634.00000000
588.82727101	2604.00000000
589.30464852	2667.00000000
589.78206256	2672.00000000
590.25951311	2694.00000000
590.73700012	2666.00000000
591.21452355	2652.00000000
591.69208338	2623.00000000
592.16967956	2706.00000000
592.64731205	2655.00000000
593.12498082	2691.00000000
593.60268584	2739.00000000
594.08042706	2681.00000000
594.55820445	2703.00000000
595.03601797	2645.00000000
595.51386759	2713.00000000
595.99175326	2730.00000000
596.46967496	2686.00000000
596.94763264	2732.00000000
597.42562627	2714.00000000
597.90365581	2679.00000000
598.38172122	2706.00000000
598.85982248	2750.00000000
599.33795953	2667.00000000
599.81613235	2647.00000000
600.29434089	2758.00000000
600.77258513	2676.00000000
601.25086501	2822.00000000
601.72918052	2778.00000000
602.20753161	2825.00000000
602.68591823	2808.00000000
603.16434037	2825.00000000
603.64279797	2741.00000000
604.12129101	2778.00000000
604.59981945	2821.00000000
605.07838324	2820.00000000
605.55698236	2814.00000000
606.03561676	2798.00000000
606.51428641	2843.00000000
606.99299127	2818.00000000
607.47173131	2817.00000000
607.95050648	2826.00000000
608.42931676	2879.00000000
608.90816210	2854.00000000
609.38704248	2842.00000000
609.86595784	2838.00000000
610.34490816	2811.00000000
610.82389339	2846.00000000
611.30291351	2801.00000000
611.78196847	2848.00000000
612.26105823	2791.00000000
612.74018277	2832.00000000
613.21934204	2845.00000000
613.69853601	2849.00000000
614.17776464	2762.00000000
614.65702789	2855.00000000
615.13632573	2821.00000000
615.61565812	2846.00000000
616.09502502	2882.00000000
616.57442640	2827.00000000
617.05386221	2681.00000000
617.53333243	2806.00000000
618.01283702	2772.00000000
618.49237593	2857.00000000
618.97194914	2878.00000000
619.45155660	2803.00000000
619.93119828	2907.00000000
620.41087415	2882.00000000
620.89058415	2884.00000000
621.37032827	2846.00000000
621.85010646	2890.00000000
622.32991868	2854.00000000
622.80976490	2873.00000000
623.28964508	2891.00000000
623.76955919	2889.00000000
624.24950718	2918.00000000
624.72948902	2943.00000000
625.20950468	2932.00000000
625.68955412	2859.00000000
626.16963729	2844.00000000
626.64975417	2929.00000000
627.12990471	2948.00000000
627.61008889	2875.00000000
628.09030666	2975.00000000
628.57055798	2888.00000000
629.05084283	2959.00000000
629.53116115	2946.00000000
630.01151293	2923.00000000
630.49189811	2918.00000000
630.97231666	2908.00000000
631.45276855	2955.00000000
631.93325374	2917.00000000
632.41377219	2925.00000000
632.89432387	2876.00000000
633.37490873	2935.00000000
633.85552675	2903.00000000
634.33617788	2947.00000000
634.81686209	2904.00000000
635.29757934	2938.00000000
635.77832959	2923.00000000
636.25911281	2924.00000000
636.73992897	2938.00000000
637.22077801	2787.00000000
637.70165992	2939.00000000
638.18257464	2906.00000000
638.66352215	2896.00000000
639.14450240	2913.00000000
639.62551537	2873.00000000
640.10656101	2933.00000000
640.58763928	2871.00000000
641.06875016	2877.00000000
641.54989359	2916.00000000
642.03106956	2853.00000000
642.51227801	2907.00000000
642.99351892	2919.00000000
643.47479224	2700.00000000
643.95609794	2900.00000000
644.43743598	2841.00000000
644.91880633	2894.00000000
645.40020894	2874.00000000
645.88164379	2854.00000000
646.36311083	2945.00000000
646.84461003	2914.00000000
647.32614135	2924.00000000
647.80770476	2926.00000000
648.28930022	2949.00000000
648.77092768	2913.00000000
649.25258712	2874.00000000
649.73427850	2904.00000000
650.21600177	2878.00000000
650.69775691	2922.00000000
651.17954388	2902.00000000
651.66136264	2892.00000000
652.14321315	2941.00000000
652.62509538	2929.00000000
653.10700929	2878.00000000
653.58895484	2898.00000000
654.07093200	2945.00000000
654.55294072	2952.00000000
655.03498098	2936.00000000
655.51705274	2879.00000000
655.99915595	2900.00000000
656.48129059	2893.00000000
656.96345661	2866.00000000
657.44565398	2894.00000000
657.92788266	2877.00000000
658.41014262	2890.00000000
658.89243382	2908.00000000
659.37475621	2864.00000000
659.85710978	2882.00000000
660.33949447	2893.00000000
660.82191025	2846.00000000
661.30435708	2875.00000000
661.78683493	2870.00000000
662.26934377	2852.00000000
662.75188354	2873.00000000
663.23445423	2748.00000000
663.71705578	2829.00000000
664.19968817	2886.00000000
664.68235136	2849.00000000
665.16504530	2826.00000000
665.64776997	2796.00000000
666.13052532	2829.00000000
666.61331133	2815.00000000
667.09612794	2798.00000000
667.57897514	2814.00000000
668.06185287	2768.00000000
668.54476110	2771.00000000
669.02769980	2769.00000000
669.51066893	2807.00000000
669.99366845	2848.00000000
670.47669833	2842.00000000
670.95975852	2858.00000000
671.44284900	2798.00000000
671.92596972	2773.00000000
672.40912065	2844.00000000
672.89230175	2844.00000000
673.37551298	2820.00000000
673.85875431	2861.00000000
674.34202570	2836.00000000
674.82532712	2810.00000000
675.30865852	2856.00000000
675.79201988	2822.00000000
676.27541115	2852.00000000
676.75883229	2841.00000000
677.24228328	2865.00000000
677.72576406	2862.00000000
678.20927462	2907.00000000
678.69281490	2772.00000000
679.17638488	2831.00000000
679.65998451	2880.00000000
680.14361377	2878.00000000
680.62727260	2901.00000000
681.11096098	2868.00000000
681.59467887	2863.00000000
682.07842623	2837.00000000
682.56220303	2895.00000000
683.04600923	2795.00000000
683.52984478	2856.00000000
684.01370967	2865.00000000
684.49760384	2900.00000000
684.98152726	2919.00000000
685.46547989	2859.00000000
685.94946171	2888.00000000
686.43347266	2906.00000000
686.91751272	2932.00000000
687.40158185	2873.00000000
687.88568001	2918.00000000
688.36980716	2886.00000000
688.85396327	2884.00000000
689.33814829	2896.00000000
689.82236221	2909.00000000
690.30660496	2910.00000000
690.79087653	2900.00000000
691.27517687	2856.00000000
691.75950595	2906.00000000
692.24386373	2861.00000000
692.72825017	2932.00000000
693.21266523	2853.00000000
693.69710889	2835.00000000
694.18158109	2834.00000000
694.66608181	2863.00000000
695.15061101	2767.00000000
695.63516866	2830.00000000
696.11975470	2842.00000000
696.60436912	2873.00000000
697.08901187	2809.00000000
697.57368291	2830.00000000
698.05838221	2791.00000000
698.54310973	2832.00000000
699.02786544	2785.00000000
699.51264929	2845.00000000
699.99746125	2856.00000000
700.48230129	2860.00000000
700.96716936	2818.00000000
701.45206544	2838.00000000
701.93698948	2807.00000000
702.42194144	2833.00000000
702.90692130	2848.00000000
703.39192900	2766.00000000
703.87696453	2906.00000000
704.36202783	2877.00000000
704.84711888	2861.00000000
705.33223763	2857.00000000
705.81738405	2833.00000000
706.30255811	2878.00000000
706.78775976	2836.00000000
707.27298897	2841.00000000
707.75824570	2846.00000000
708.24352991	2792.00000000
708.72884158	2839.00000000
709.21418065	2852.00000000
709.69954710	2746.00000000
710.18494089	2855.00000000
710.67036198	2822.00000000
711.15581034	2828.00000000
711.64128592	2853.00000000
712.12678869	2859.00000000
712.61231862	2840.00000000
713.09787566	2779.00000000
713.58345979	2851.00000000
714.06907095	2854.00000000
714.55470913	2805.00000000
715.04037427	2828.00000000
715.52606635	2815.00000000
716.01178533	2850.00000000
716.49753116	2838.00000000
716.98330382	2838.00000000
717.46910326	2696.00000000
717.95492946	2771.00000000
718.44078236	2801.00000000
718.92666194	2810.00000000
719.41256816	2804.00000000
719.89850098	2777.00000000
720.38446037	2722.00000000
720.87044629	2777.00000000
721.35645870	2730.00000000
721.84249756	2793.00000000
722.32856284	2790.00000000
722.81465450	2775.00000000
723.30077251	2722.00000000
723.78691682	2742.00000000
724.27308741	2728.00000000
724.75928423	2742.00000000
725.24550724	2709.00000000
725.73175642	2727.00000000
726.21803172	2771.00000000
726.70433311	2752.00000000
727.19066055	2657.00000000
727.67701400	2699.00000000
728.16339343	2756.00000000
728.64979880	2729.00000000
729.13623007	2686.00000000
729.62268721	2718.00000000
730.10917018	2642.00000000
730.59567893	2688.00000000
731.08221345	2690.00000000
731.56877369	2675.00000000
732.05535960	2718.00000000
732.54197116	2724.00000000
733.02860834	2695.00000000
733.51527108	2671.00000000
734.00195936	2653.00000000
734.48867313	2694.00000000
734.97541237	2672.00000000
735.46217703	2719.00000000
735.94896708	2656.00000000
736.43578248	2730.00000000
736.92262320	2721.00000000
737.40948919	2701.00000000
737.89638043	2710.00000000
738.38329686	2710.00000000
738.87023847	2680.00000000
739.35720520	2638.00000000
739.84419703	2698.00000000
740.33121392	2720.00000000
740.81825582	2645.00000000
741.30532271	2568.00000000
741.79241455	2642.00000000
742.27953129	2667.00000000
742.76667291	2713.00000000
743.25383936	2698.00000000
743.74103061	2677.00000000
744.22824663	2714.00000000
744.71548737	2667.00000000
745.20275280	2588.00000000
745.69004288	2680.00000000
746.17735758	2677.00000000
746.66469685	2671.00000000
747.15206067	2631.00000000
747.63944899	2669.00000000
748.12686178	2646.00000000
748.61429900	2512.00000000
749.10176061	2651.00000000
749.58924659	2657.00000000
750.07675688	2664.00000000
750.56429146	2657.00000000
751.05185028	2593.00000000
751.53943332	2608.00000000
752.02704053	2520.00000000
752.51467187	2521.00000000
753.00232732	2548.00000000
753.49000683	2603.00000000
753.97771036	2633.00000000
754.46543789	2578.00000000
754.95318936	2593.00000000
755.44096476	2606.00000000
755.92876403	2588.00000000
756.41658715	2572.00000000
756.90443407	2621.00000000
757.39230476	2553.00000000
757.88019918	2535.00000000
758.36811730	2595.00000000
758.85605908	2570.00000000
759.34402448	2562.00000000
759.83201346	2508.00000000
760.32002599	2485.00000000
760.80806203	2347.00000000
761.29612155	2442.00000000
761.78420451	2522.00000000
762.27231086	2540.00000000
762.76044058	2557.00000000
763.24859363	2523.00000000
763.73676997	2481.00000000
764.22496956	2492.00000000
764.71319237	2519.00000000
765.20143836	2515.00000000
765.68970749	2514.00000000
766.17799973	2387.00000000
766.66631504	2446.00000000
767.15465338	2473.00000000
767.64301472	2448.00000000
768.13139902	2459.00000000
768.61980624	2488.00000000
769.10823635	2486.00000000
769.59668930	2467.00000000
770.08516507	2475.00000000
770.57366361	2433.00000000
771.06218489	2472.00000000
771.55072888	2428.00000000
772.03929553	2438.00000000
772.52788480	2469.00000000
773.01649667	2444.00000000
773.50513109	2383.00000000
773.99378804	2462.00000000
774.48246746	2443.00000000
774.97116932	2408.00000000
775.45989360	2428.00000000
775.94864024	2443.00000000
776.43740922	2391.00000000
776.92620050	2436.00000000
777.41501403	2366.00000000
777.90384979	2437.00000000
778.39270774	2401.00000000
778.88158784	2398.00000000
779.37049004	2405.00000000
779.85941433	2296.00000000
780.34836066	2390.00000000
780.83732898	2419.00000000
781.32631928	2411.00000000
781.81533150	2346.00000000
782.30436562	2337.00000000
782.79342159	2398.00000000
783.28249938	2382.00000000
783.77159895	2362.00000000
784.26072027	2349.00000000
784.74986329	2382.00000000
785.23902799	2360.00000000
785.72821432	2239.00000000
786.21742225	2380.00000000
786.70665174	2262.00000000
787.19590276	2345.00000000
787.68517526	2350.00000000
788.17446922	2146.00000000
788.66378459	2298.00000000
789.15312133	2269.00000000
789.64247942	2336.00000000
790.13185881	2341.00000000
790.62125947	2351.00000000
791.11068135	2307.00000000
791.60012443	2317.00000000
792.08958867	2251.00000000
792.57907402	2315.00000000
793.06858046	2246.00000000
793.55810795	2293.00000000
794.04765644	2271.00000000
794.53722591	2277.00000000
795.02681631	2286.00000000
795.51642762	2252.00000000
796.00605978	2285.00000000
796.49571277	2286.00000000
796.98538655	2269.00000000
797.47508108	2308.00000000
797.96479632	2252.00000000
798.45453224	2273.00000000
798.94428881	2239.00000000
799.43406597	2233.00000000
799.92386371	2224.00000000
800.41368198	2122.00000000
800.90352074	2254.00000000
801.39337996	2196.00000000
801.88325960	2132.00000000
802.37315962	2215.00000000
802.86307999	2219.00000000
803.35302067	2232.00000000
803.84298163	2205.00000000
804.33296282	2182.00000000
804.82296421	2208.00000000
805.31298576	2195.00000000
805.80302744	2183.00000000
806.29308921	1980.00000000
806.78317103	2184.00000000
807.27327287	2178.00000000
807.76339468	2155.00000000
808.25353644	2205.00000000
808.74369811	2191.00000000
809.23387964	2131.00000000
809.72408100	2157.00000000
810.21430216	2136.00000000
810.70454308	2167.00000000
811.19480372	2135.00000000
811.68508405	2154.00000000
812.17538402	2185.00000000
812.66570360	2162.00000000
813.15604276	2165.00000000
813.64640146	2128.00000000
814.13677965	2151.00000000
814.62717731	2173.00000000
815.11759440	2124.00000000
815.60803088	2172.00000000
816.09848671	2161.00000000
816.58896185	2131.00000000
817.07945628	2149.00000000
817.56996995	2060.00000000
818.06050283	2149.00000000
818.55105488	2135.00000000
819.04162606	2126.00000000
819.53221633	2166.00000000
820.02282567	2175.00000000
820.51345402	2159.00000000
821.00410137	2132.00000000
821.49476766	2049.00000000
821.98545286	2119.00000000
822.47615694	2133.00000000
822.96687986	2138.00000000

