Saved at time: 14066699 milliseconds
Integration time: 1500000
Scans to average: 0
Boxcar smoothing: 0
Wavelengths	Intensities
337.35134888	1663.00000000
337.80362194	1668.00000000
338.25595141	1689.00000000
338.70833725	1668.00000000
339.16077942	1647.00000000
339.61327788	1629.00000000
340.06583261	1661.00000000
340.51844356	1590.00000000
340.97111069	1606.00000000
341.42383397	1588.00000000
341.87661336	1565.00000000
342.32944883	1598.00000000
342.78234033	1615.00000000
343.23528784	1627.00000000
343.68829131	1659.00000000
344.14135070	1630.00000000
344.59446599	1657.00000000
345.04763714	1612.00000000
345.50086410	1590.00000000
345.95414684	1671.00000000
346.40748532	1623.00000000
346.86087951	1622.00000000
347.31432937	1646.00000000
347.76783486	1670.00000000
348.22139595	1637.00000000
348.67501260	1637.00000000
349.12868478	1652.00000000
349.58241244	1619.00000000
350.03619554	1657.00000000
350.49003406	1643.00000000
350.94392796	1630.00000000
351.39787720	1605.00000000
351.85188173	1628.00000000
352.30594153	1587.00000000
352.76005657	1613.00000000
353.21422679	1597.00000000
353.66845217	1647.00000000
354.12273266	1592.00000000
354.57706824	1606.00000000
355.03145886	1620.00000000
355.48590449	1640.00000000
355.94040509	1643.00000000
356.39496062	1620.00000000
356.84957105	1628.00000000
357.30423634	1652.00000000
357.75895646	1651.00000000
358.21373136	1619.00000000
358.66856102	1584.00000000
359.12344538	1644.00000000
359.57838442	1657.00000000
360.03337811	1559.00000000
360.48842639	1648.00000000
360.94352924	1573.00000000
361.39868662	1639.00000000
361.85389850	1636.00000000
362.30916483	1642.00000000
362.76448558	1664.00000000
363.21986071	1589.00000000
363.67529018	1611.00000000
364.13077397	1647.00000000
364.58631202	1643.00000000
365.04190431	1598.00000000
365.49755080	1574.00000000
365.95325145	1664.00000000
366.40900623	1595.00000000
366.86481509	1641.00000000
367.32067801	1672.00000000
367.77659494	1644.00000000
368.23256584	1659.00000000
368.68859069	1635.00000000
369.14466944	1605.00000000
369.60080206	1652.00000000
370.05698851	1606.00000000
370.51322875	1562.00000000
370.96952275	1602.00000000
371.42587047	1665.00000000
371.88227187	1671.00000000
372.33872691	1665.00000000
372.79523557	1597.00000000
373.25179780	1583.00000000
373.70841357	1636.00000000
374.16508283	1635.00000000
374.62180556	1644.00000000
375.07858171	1655.00000000
375.53541125	1669.00000000
375.99229415	1662.00000000
376.44923035	1563.00000000
376.90621984	1605.00000000
377.36326257	1662.00000000
377.82035850	1606.00000000
378.27750760	1623.00000000
378.73470984	1337.00000000
379.19196516	1610.00000000
379.64927355	1656.00000000
380.10663495	1519.00000000
380.56404934	1611.00000000
381.02151668	1628.00000000
381.47903693	1667.00000000
381.93661005	1621.00000000
382.39423600	1599.00000000
382.85191476	1663.00000000
383.30964628	1612.00000000
383.76743053	1623.00000000
384.22526746	1637.00000000
384.68315705	1600.00000000
385.14109926	1659.00000000
385.59909404	1638.00000000
386.05714137	1637.00000000
386.51524120	1647.00000000
386.97339351	1625.00000000
387.43159824	1622.00000000
387.88985537	1646.00000000
388.34816486	1655.00000000
388.80652667	1643.00000000
389.26494076	1667.00000000
389.72340710	1651.00000000
390.18192566	1651.00000000
390.64049638	1642.00000000
391.09911925	1659.00000000
391.55779422	1605.00000000
392.01652125	1666.00000000
392.47530030	1646.00000000
392.93413135	1525.00000000
393.39301436	1684.00000000
393.85194927	1659.00000000
394.31093607	1590.00000000
394.76997472	1647.00000000
395.22906517	1627.00000000
395.68820739	1591.00000000
396.14740134	1681.00000000
396.60664699	1706.00000000
397.06594429	1642.00000000
397.52529322	1675.00000000
397.98469374	1673.00000000
398.44414581	1651.00000000
398.90364938	1602.00000000
399.36320444	1682.00000000
399.82281093	1667.00000000
400.28246882	1654.00000000
400.74217808	1703.00000000
401.20193867	1650.00000000
401.66175054	1669.00000000
402.12161368	1694.00000000
402.58152803	1673.00000000
403.04149356	1661.00000000
403.50151023	1708.00000000
403.96157802	1683.00000000
404.42169687	1679.00000000
404.88186676	1658.00000000
405.34208764	1645.00000000
405.80235949	1680.00000000
406.26268226	1635.00000000
406.72305591	1653.00000000
407.18348042	1701.00000000
407.64395574	1714.00000000
408.10448183	1681.00000000
408.56505866	1617.00000000
409.02568620	1639.00000000
409.48636440	1629.00000000
409.94709324	1669.00000000
410.40787266	1660.00000000
410.86870264	1601.00000000
411.32958314	1687.00000000
411.79051412	1660.00000000
412.25149554	1555.00000000
412.71252738	1634.00000000
413.17360958	1682.00000000
413.63474212	1692.00000000
414.09592496	1703.00000000
414.55715806	1730.00000000
415.01844138	1655.00000000
415.47977490	1652.00000000
415.94115856	1703.00000000
416.40259233	1712.00000000
416.86407619	1625.00000000
417.32561008	1634.00000000
417.78719398	1698.00000000
418.24882784	1652.00000000
418.71051164	1727.00000000
419.17224533	1648.00000000
419.63402887	1713.00000000
420.09586223	1715.00000000
420.55774538	1670.00000000
421.01967827	1669.00000000
421.48166087	1700.00000000
421.94369315	1647.00000000
422.40577506	1711.00000000
422.86790657	1677.00000000
423.33008764	1573.00000000
423.79231823	1724.00000000
424.25459832	1728.00000000
424.71692786	1667.00000000
425.17930681	1705.00000000
425.64173514	1692.00000000
426.10421281	1710.00000000
426.56673978	1661.00000000
427.02931602	1595.00000000
427.49194150	1702.00000000
427.95461617	1734.00000000
428.41733999	1738.00000000
428.88011294	1736.00000000
429.34293497	1741.00000000
429.80580604	1639.00000000
430.26872613	1698.00000000
430.73169519	1746.00000000
431.19471319	1722.00000000
431.65778008	1700.00000000
432.12089584	1712.00000000
432.58406043	1721.00000000
433.04727380	1569.00000000
433.51053593	1678.00000000
433.97384677	1759.00000000
434.43720630	1712.00000000
434.90061446	1634.00000000
435.36407123	1761.00000000
435.82757657	1807.00000000
436.29113044	1720.00000000
436.75473281	1759.00000000
437.21838363	1745.00000000
437.68208288	1731.00000000
438.14583051	1792.00000000
438.60962648	1722.00000000
439.07347077	1733.00000000
439.53736333	1780.00000000
440.00130413	1743.00000000
440.46529314	1792.00000000
440.92933030	1765.00000000
441.39341559	1693.00000000
441.85754898	1759.00000000
442.32173041	1770.00000000
442.78595986	1789.00000000
443.25023730	1749.00000000
443.71456267	1744.00000000
444.17893595	1808.00000000
444.64335711	1818.00000000
445.10782609	1711.00000000
445.57234287	1786.00000000
446.03690741	1797.00000000
446.50151967	1764.00000000
446.96617962	1799.00000000
447.43088721	1775.00000000
447.89564242	1836.00000000
448.36044520	1862.00000000
448.82529553	1837.00000000
449.29019335	1860.00000000
449.75513864	1802.00000000
450.22013135	1860.00000000
450.68517146	1835.00000000
451.15025892	1795.00000000
451.61539370	1794.00000000
452.08057576	1863.00000000
452.54580506	1871.00000000
453.01108157	1854.00000000
453.47640525	1871.00000000
453.94177607	1825.00000000
454.40719398	1847.00000000
454.87265895	1829.00000000
455.33817095	1841.00000000
455.80372993	1845.00000000
456.26933586	1857.00000000
456.73498870	1844.00000000
457.20068842	1895.00000000
457.66643498	1887.00000000
458.13222835	1749.00000000
458.59806847	1622.00000000
459.06395533	1852.00000000
459.52988888	1827.00000000
459.99586908	1907.00000000
460.46189590	1925.00000000
460.92796931	1822.00000000
461.39408926	1910.00000000
461.86025571	1863.00000000
462.32646864	1901.00000000
462.79272800	1891.00000000
463.25903377	1916.00000000
463.72538589	1920.00000000
464.19178433	1890.00000000
464.65822906	1857.00000000
465.12472005	1894.00000000
465.59125725	1891.00000000
466.05784062	1904.00000000
466.52447013	1899.00000000
466.99114575	1872.00000000
467.45786744	1897.00000000
467.92463515	1885.00000000
468.39144886	1885.00000000
468.85830852	1857.00000000
469.32521410	1896.00000000
469.79216557	1925.00000000
470.25916288	1893.00000000
470.72620600	1917.00000000
471.19329489	1889.00000000
471.66042952	1908.00000000
472.12760985	1940.00000000
472.59483583	1935.00000000
473.06210745	1934.00000000
473.52942465	1981.00000000
473.99678740	2022.00000000
474.46419567	1897.00000000
474.93164941	1971.00000000
475.39914860	1986.00000000
475.86669319	1920.00000000
476.33428315	2029.00000000
476.80191844	1990.00000000
477.26959902	2020.00000000
477.73732486	1968.00000000
478.20509592	1980.00000000
478.67291216	2004.00000000
479.14077355	2013.00000000
479.60868006	2000.00000000
480.07663163	2009.00000000
480.54462824	1979.00000000
481.01266985	2018.00000000
481.48075642	1999.00000000
481.94888792	2032.00000000
482.41706430	1983.00000000
482.88528554	2006.00000000
483.35355160	2006.00000000
483.82186243	2033.00000000
484.29021801	2060.00000000
484.75861829	2031.00000000
485.22706324	2013.00000000
485.69555282	2063.00000000
486.16408699	2045.00000000
486.63266573	2044.00000000
487.10128898	2039.00000000
487.56995672	2092.00000000
488.03866891	2100.00000000
488.50742551	2063.00000000
488.97622648	2071.00000000
489.44507179	2004.00000000
489.91396139	2086.00000000
490.38289527	2051.00000000
490.85187337	2163.00000000
491.32089566	2171.00000000
491.78996210	2188.00000000
492.25907266	2136.00000000
492.72822730	1968.00000000
493.19742598	2176.00000000
493.66666867	2181.00000000
494.13595533	2180.00000000
494.60528591	2178.00000000
495.07466040	2201.00000000
495.54407874	2169.00000000
496.01354091	2189.00000000
496.48304686	2169.00000000
496.95259656	2200.00000000
497.42218997	2216.00000000
497.89182706	2128.00000000
498.36150779	2205.00000000
498.83123211	2194.00000000
499.30100000	2196.00000000
499.77081142	2240.00000000
500.24066633	2251.00000000
500.71056469	2205.00000000
501.18050648	2216.00000000
501.65049164	2261.00000000
502.12052014	2265.00000000
502.59059195	2296.00000000
503.06070704	2261.00000000
503.53086535	2203.00000000
504.00106686	2156.00000000
504.47131154	2301.00000000
504.94159933	2299.00000000
505.41193021	2310.00000000
505.88230414	2369.00000000
506.35272109	2411.00000000
506.82318101	2420.00000000
507.29368386	2399.00000000
507.76422962	2442.00000000
508.23481825	2448.00000000
508.70544970	2421.00000000
509.17612395	2422.00000000
509.64684095	2473.00000000
510.11760067	2489.00000000
510.58840307	2501.00000000
511.05924812	2499.00000000
511.53013577	2512.00000000
512.00106600	2512.00000000
512.47203875	2535.00000000
512.94305401	2499.00000000
513.41411173	2523.00000000
513.88521187	2537.00000000
514.35635440	2538.00000000
514.82753927	2470.00000000
515.29876647	2497.00000000
515.77003593	2555.00000000
516.24134764	2500.00000000
516.71270155	2584.00000000
517.18409763	2614.00000000
517.65553584	2603.00000000
518.12701614	2601.00000000
518.59853850	2641.00000000
519.07010287	2524.00000000
519.54170923	2629.00000000
520.01335753	2555.00000000
520.48504774	2646.00000000
520.95677983	2653.00000000
521.42855375	2624.00000000
521.90036946	2643.00000000
522.37222694	2646.00000000
522.84412615	2646.00000000
523.31606704	2690.00000000
523.78804958	2677.00000000
524.26007374	2658.00000000
524.73213947	2701.00000000
525.20424675	2669.00000000
525.67639553	2677.00000000
526.14858578	2727.00000000
526.62081745	2636.00000000
527.09309052	2684.00000000
527.56540495	2712.00000000
528.03776070	2682.00000000
528.51015773	2676.00000000
528.98259601	2699.00000000
529.45507550	2667.00000000
529.92759616	2699.00000000
530.40015795	2668.00000000
530.87276085	2688.00000000
531.34540481	2701.00000000
531.81808979	2688.00000000
532.29081576	2668.00000000
532.76358269	2700.00000000
533.23639053	2713.00000000
533.70923924	2671.00000000
534.18212880	2729.00000000
534.65505917	2757.00000000
535.12803030	2742.00000000
535.60104217	2760.00000000
536.07409473	2746.00000000
536.54718794	2749.00000000
537.02032178	2769.00000000
537.49349620	2458.00000000
537.96671117	2760.00000000
538.43996665	2814.00000000
538.91326261	2790.00000000
539.38659900	2698.00000000
539.85997579	2807.00000000
540.33339294	2831.00000000
540.80685042	2732.00000000
541.28034819	2816.00000000
541.75388622	2839.00000000
542.22746446	2699.00000000
542.70108287	2700.00000000
543.17474144	2811.00000000
543.64844010	2842.00000000
544.12217884	2757.00000000
544.59595761	2814.00000000
545.06977637	2854.00000000
545.54363510	2838.00000000
546.01753374	2838.00000000
546.49147227	2826.00000000
546.96545065	2816.00000000
547.43946884	2826.00000000
547.91352680	2798.00000000
548.38762450	2779.00000000
548.86176191	2697.00000000
549.33593897	2838.00000000
549.81015567	2748.00000000
550.28441195	2801.00000000
550.75870779	2818.00000000
551.23304315	2647.00000000
551.70741799	2845.00000000
552.18183227	2838.00000000
552.65628595	2832.00000000
553.13077901	2814.00000000
553.60531140	2795.00000000
554.07988309	2839.00000000
554.55449403	2841.00000000
555.02914420	2875.00000000
555.50383356	2894.00000000
555.97856206	2898.00000000
556.45332968	2806.00000000
556.92813637	2817.00000000
557.40298210	2870.00000000
557.87786683	2877.00000000
558.35279053	2887.00000000
558.82775315	2859.00000000
559.30275467	2931.00000000
559.77779504	2918.00000000
560.25287423	2916.00000000
560.72799221	2867.00000000
561.20314892	2976.00000000
561.67834435	2905.00000000
562.15357844	2947.00000000
562.62885117	2945.00000000
563.10416249	2953.00000000
563.57951238	2922.00000000
564.05490079	2946.00000000
564.53032769	2940.00000000
565.00579303	2991.00000000
565.48129679	2917.00000000
565.95683893	2973.00000000
566.43241940	2957.00000000
566.90803818	2874.00000000
567.38369523	2958.00000000
567.85939050	2884.00000000
568.33512397	2940.00000000
568.81089559	2974.00000000
569.28670533	2965.00000000
569.76255316	2954.00000000
570.23843902	2924.00000000
570.71436290	2945.00000000
571.19032475	2986.00000000
571.66632453	2973.00000000
572.14236222	2969.00000000
572.61843776	2976.00000000
573.09455113	2900.00000000
573.57070228	2964.00000000
574.04689119	2980.00000000
574.52311781	2961.00000000
574.99938211	2978.00000000
575.47568405	3066.00000000
575.95202359	3046.00000000
576.42840070	2861.00000000
576.90481534	3077.00000000
577.38126747	3038.00000000
577.85775706	3109.00000000
578.33428407	3142.00000000
578.81084846	3142.00000000
579.28745020	3110.00000000
579.76408925	3117.00000000
580.24076557	3200.00000000
580.71747912	3044.00000000
581.19422988	3161.00000000
581.67101780	3162.00000000
582.14784284	3232.00000000
582.62470497	3180.00000000
583.10160416	3176.00000000
583.57854035	3201.00000000
584.05551353	3140.00000000
584.53252365	3235.00000000
585.00957067	3243.00000000
585.48665456	3248.00000000
585.96377529	3240.00000000
586.44093280	3280.00000000
586.91812708	3251.00000000
587.39535807	3259.00000000
587.87262575	3246.00000000
588.34993007	3221.00000000
588.82727101	3204.00000000
589.30464852	3275.00000000
589.78206256	3268.00000000
590.25951311	3296.00000000
590.73700012	3262.00000000
591.21452355	3247.00000000
591.69208338	3229.00000000
592.16967956	3310.00000000
592.64731205	3247.00000000
593.12498082	3287.00000000
593.60268584	3341.00000000
594.08042706	3285.00000000
594.55820445	3303.00000000
595.03601797	3252.00000000
595.51386759	3319.00000000
595.99175326	3337.00000000
596.46967496	3301.00000000
596.94763264	3364.00000000
597.42562627	3329.00000000
597.90365581	3297.00000000
598.38172122	3335.00000000
598.85982248	3376.00000000
599.33795953	3303.00000000
599.81613235	3285.00000000
600.29434089	3392.00000000
600.77258513	3324.00000000
601.25086501	3459.00000000
601.72918052	3426.00000000
602.20753161	3481.00000000
602.68591823	3454.00000000
603.16434037	3468.00000000
603.64279797	3387.00000000
604.12129101	3429.00000000
604.59981945	3472.00000000
605.07838324	3467.00000000
605.55698236	3455.00000000
606.03561676	3454.00000000
606.51428641	3500.00000000
606.99299127	3474.00000000
607.47173131	3468.00000000
607.95050648	3469.00000000
608.42931676	3531.00000000
608.90816210	3500.00000000
609.38704248	3480.00000000
609.86595784	3475.00000000
610.34490816	3460.00000000
610.82389339	3495.00000000
611.30291351	3445.00000000
611.78196847	3478.00000000
612.26105823	3430.00000000
612.74018277	3467.00000000
613.21934204	3483.00000000
613.69853601	3446.00000000
614.17776464	3396.00000000
614.65702789	3468.00000000
615.13632573	3448.00000000
615.61565812	3481.00000000
616.09502502	3509.00000000
616.57442640	3441.00000000
617.05386221	3313.00000000
617.53333243	3420.00000000
618.01283702	3409.00000000
618.49237593	3497.00000000
618.97194914	3516.00000000
619.45155660	3436.00000000
619.93119828	3540.00000000
620.41087415	3517.00000000
620.89058415	3516.00000000
621.37032827	3491.00000000
621.85010646	3535.00000000
622.32991868	3496.00000000
622.80976490	3524.00000000
623.28964508	3535.00000000
623.76955919	3536.00000000
624.24950718	3560.00000000
624.72948902	3605.00000000
625.20950468	3604.00000000
625.68955412	3517.00000000
626.16963729	3514.00000000
626.64975417	3592.00000000
627.12990471	3606.00000000
627.61008889	3523.00000000
628.09030666	3636.00000000
628.57055798	3538.00000000
629.05084283	3625.00000000
629.53116115	3600.00000000
630.01151293	3564.00000000
630.49189811	3578.00000000
630.97231666	3558.00000000
631.45276855	3616.00000000
631.93325374	3558.00000000
632.41377219	3574.00000000
632.89432387	3537.00000000
633.37490873	3594.00000000
633.85552675	3549.00000000
634.33617788	3586.00000000
634.81686209	3560.00000000
635.29757934	3579.00000000
635.77832959	3568.00000000
636.25911281	3557.00000000
636.73992897	3571.00000000
637.22077801	3415.00000000
637.70165992	3554.00000000
638.18257464	3525.00000000
638.66352215	3515.00000000
639.14450240	3522.00000000
639.62551537	3493.00000000
640.10656101	3551.00000000
640.58763928	3483.00000000
641.06875016	3485.00000000
641.54989359	3532.00000000
642.03106956	3444.00000000
642.51227801	3518.00000000
642.99351892	3531.00000000
643.47479224	3305.00000000
643.95609794	3504.00000000
644.43743598	3442.00000000
644.91880633	3508.00000000
645.40020894	3478.00000000
645.88164379	3458.00000000
646.36311083	3558.00000000
646.84461003	3512.00000000
647.32614135	3534.00000000
647.80770476	3518.00000000
648.28930022	3539.00000000
648.77092768	3511.00000000
649.25258712	3484.00000000
649.73427850	3521.00000000
650.21600177	3499.00000000
650.69775691	3521.00000000
651.17954388	3505.00000000
651.66136264	3499.00000000
652.14321315	3548.00000000
652.62509538	3539.00000000
653.10700929	3483.00000000
653.58895484	3494.00000000
654.07093200	3537.00000000
654.55294072	3534.00000000
655.03498098	3527.00000000
655.51705274	3461.00000000
655.99915595	3495.00000000
656.48129059	3477.00000000
656.96345661	3450.00000000
657.44565398	3490.00000000
657.92788266	3465.00000000
658.41014262	3468.00000000
658.89243382	3499.00000000
659.37475621	3435.00000000
659.85710978	3453.00000000
660.33949447	3469.00000000
660.82191025	3416.00000000
661.30435708	3434.00000000
661.78683493	3426.00000000
662.26934377	3402.00000000
662.75188354	3428.00000000
663.23445423	3302.00000000
663.71705578	3390.00000000
664.19968817	3439.00000000
664.68235136	3401.00000000
665.16504530	3372.00000000
665.64776997	3345.00000000
666.13052532	3374.00000000
666.61331133	3368.00000000
667.09612794	3343.00000000
667.57897514	3334.00000000
668.06185287	3283.00000000
668.54476110	3311.00000000
669.02769980	3309.00000000
669.51066893	3337.00000000
669.99366845	3373.00000000
670.47669833	3382.00000000
670.95975852	3399.00000000
671.44284900	3343.00000000
671.92596972	3317.00000000
672.40912065	3369.00000000
672.89230175	3396.00000000
673.37551298	3352.00000000
673.85875431	3401.00000000
674.34202570	3378.00000000
674.82532712	3344.00000000
675.30865852	3393.00000000
675.79201988	3366.00000000
676.27541115	3402.00000000
676.75883229	3377.00000000
677.24228328	3394.00000000
677.72576406	3401.00000000
678.20927462	3444.00000000
678.69281490	3316.00000000
679.17638488	3375.00000000
679.65998451	3428.00000000
680.14361377	3419.00000000
680.62727260	3444.00000000
681.11096098	3412.00000000
681.59467887	3406.00000000
682.07842623	3364.00000000
682.56220303	3433.00000000
683.04600923	3327.00000000
683.52984478	3381.00000000
684.01370967	3403.00000000
684.49760384	3429.00000000
684.98152726	3445.00000000
685.46547989	3399.00000000
685.94946171	3421.00000000
686.43347266	3446.00000000
686.91751272	3481.00000000
687.40158185	3409.00000000
687.88568001	3450.00000000
688.36980716	3417.00000000
688.85396327	3417.00000000
689.33814829	3435.00000000
689.82236221	3436.00000000
690.30660496	3436.00000000
690.79087653	3434.00000000
691.27517687	3369.00000000
691.75950595	3416.00000000
692.24386373	3377.00000000
692.72825017	3456.00000000
693.21266523	3382.00000000
693.69710889	3348.00000000
694.18158109	3346.00000000
694.66608181	3375.00000000
695.15061101	3282.00000000
695.63516866	3329.00000000
696.11975470	3339.00000000
696.60436912	3379.00000000
697.08901187	3308.00000000
697.57368291	3315.00000000
698.05838221	3276.00000000
698.54310973	3324.00000000
699.02786544	3274.00000000
699.51264929	3344.00000000
699.99746125	3354.00000000
700.48230129	3355.00000000
700.96716936	3310.00000000
701.45206544	3323.00000000
701.93698948	3295.00000000
702.42194144	3315.00000000
702.90692130	3331.00000000
703.39192900	3243.00000000
703.87696453	3379.00000000
704.36202783	3355.00000000
704.84711888	3344.00000000
705.33223763	3331.00000000
705.81738405	3299.00000000
706.30255811	3356.00000000
706.78775976	3311.00000000
707.27298897	3317.00000000
707.75824570	3314.00000000
708.24352991	3254.00000000
708.72884158	3316.00000000
709.21418065	3316.00000000
709.69954710	3210.00000000
710.18494089	3336.00000000
710.67036198	3301.00000000
711.15581034	3310.00000000
711.64128592	3320.00000000
712.12678869	3336.00000000
712.61231862	3315.00000000
713.09787566	3255.00000000
713.58345979	3324.00000000
714.06907095	3322.00000000
714.55470913	3264.00000000
715.04037427	3287.00000000
715.52606635	3274.00000000
716.01178533	3306.00000000
716.49753116	3297.00000000
716.98330382	3292.00000000
717.46910326	3159.00000000
717.95492946	3233.00000000
718.44078236	3246.00000000
718.92666194	3272.00000000
719.41256816	3251.00000000
719.89850098	3235.00000000
720.38446037	3164.00000000
720.87044629	3216.00000000
721.35645870	3170.00000000
721.84249756	3230.00000000
722.32856284	3225.00000000
722.81465450	3212.00000000
723.30077251	3147.00000000
723.78691682	3179.00000000
724.27308741	3156.00000000
724.75928423	3167.00000000
725.24550724	3142.00000000
725.73175642	3161.00000000
726.21803172	3196.00000000
726.70433311	3165.00000000
727.19066055	3074.00000000
727.67701400	3120.00000000
728.16339343	3177.00000000
728.64979880	3138.00000000
729.13623007	3106.00000000
729.62268721	3131.00000000
730.10917018	3050.00000000
730.59567893	3103.00000000
731.08221345	3092.00000000
731.56877369	3083.00000000
732.05535960	3126.00000000
732.54197116	3121.00000000
733.02860834	3101.00000000
733.51527108	3063.00000000
734.00195936	3042.00000000
734.48867313	3088.00000000
734.97541237	3063.00000000
735.46217703	3109.00000000
735.94896708	3043.00000000
736.43578248	3117.00000000
736.92262320	3123.00000000
737.40948919	3093.00000000
737.89638043	3104.00000000
738.38329686	3102.00000000
738.87023847	3064.00000000
739.35720520	3026.00000000
739.84419703	3084.00000000
740.33121392	3109.00000000
740.81825582	3034.00000000
741.30532271	2943.00000000
741.79241455	3018.00000000
742.27953129	3044.00000000
742.76667291	3092.00000000
743.25383936	3076.00000000
743.74103061	3049.00000000
744.22824663	3097.00000000
744.71548737	3045.00000000
745.20275280	2964.00000000
745.69004288	3051.00000000
746.17735758	3043.00000000
746.66469685	3034.00000000
747.15206067	2998.00000000
747.63944899	3026.00000000
748.12686178	3008.00000000
748.61429900	2881.00000000
749.10176061	3005.00000000
749.58924659	3007.00000000
750.07675688	3024.00000000
750.56429146	3011.00000000
751.05185028	2940.00000000
751.53943332	2957.00000000
752.02704053	2862.00000000
752.51467187	2866.00000000
753.00232732	2885.00000000
753.49000683	2949.00000000
753.97771036	2962.00000000
754.46543789	2913.00000000
754.95318936	2938.00000000
755.44096476	2943.00000000
755.92876403	2922.00000000
756.41658715	2911.00000000
756.90443407	2952.00000000
757.39230476	2886.00000000
757.88019918	2865.00000000
758.36811730	2921.00000000
758.85605908	2906.00000000
759.34402448	2896.00000000
759.83201346	2835.00000000
760.32002599	2790.00000000
760.80806203	2618.00000000
761.29612155	2739.00000000
761.78420451	2832.00000000
762.27231086	2859.00000000
762.76044058	2870.00000000
763.24859363	2832.00000000
763.73676997	2791.00000000
764.22496956	2802.00000000
764.71319237	2834.00000000
765.20143836	2828.00000000
765.68970749	2821.00000000
766.17799973	2686.00000000
766.66631504	2744.00000000
767.15465338	2763.00000000
767.64301472	2748.00000000
768.13139902	2755.00000000
768.61980624	2780.00000000
769.10823635	2777.00000000
769.59668930	2763.00000000
770.08516507	2764.00000000
770.57366361	2720.00000000
771.06218489	2754.00000000
771.55072888	2709.00000000
772.03929553	2722.00000000
772.52788480	2747.00000000
773.01649667	2717.00000000
773.50513109	2654.00000000
773.99378804	2728.00000000
774.48246746	2713.00000000
774.97116932	2681.00000000
775.45989360	2710.00000000
775.94864024	2723.00000000
776.43740922	2661.00000000
776.92620050	2706.00000000
777.41501403	2631.00000000
777.90384979	2696.00000000
778.39270774	2655.00000000
778.88158784	2664.00000000
779.37049004	2671.00000000
779.85941433	2558.00000000
780.34836066	2648.00000000
780.83732898	2669.00000000
781.32631928	2660.00000000
781.81533150	2603.00000000
782.30436562	2575.00000000
782.79342159	2650.00000000
783.28249938	2626.00000000
783.77159895	2609.00000000
784.26072027	2596.00000000
784.74986329	2636.00000000
785.23902799	2601.00000000
785.72821432	2494.00000000
786.21742225	2632.00000000
786.70665174	2500.00000000
787.19590276	2586.00000000
787.68517526	2596.00000000
788.17446922	2387.00000000
788.66378459	2543.00000000
789.15312133	2517.00000000
789.64247942	2573.00000000
790.13185881	2587.00000000
790.62125947	2583.00000000
791.11068135	2545.00000000
791.60012443	2552.00000000
792.08958867	2489.00000000
792.57907402	2553.00000000
793.06858046	2479.00000000
793.55810795	2526.00000000
794.04765644	2496.00000000
794.53722591	2504.00000000
795.02681631	2510.00000000
795.51642762	2479.00000000
796.00605978	2500.00000000
796.49571277	2500.00000000
796.98538655	2482.00000000
797.47508108	2522.00000000
797.96479632	2462.00000000
798.45453224	2486.00000000
798.94428881	2451.00000000
799.43406597	2444.00000000
799.92386371	2440.00000000
800.41368198	2327.00000000
800.90352074	2468.00000000
801.39337996	2421.00000000
801.88325960	2325.00000000
802.37315962	2407.00000000
802.86307999	2421.00000000
803.35302067	2435.00000000
803.84298163	2405.00000000
804.33296282	2377.00000000
804.82296421	2401.00000000
805.31298576	2389.00000000
805.80302744	2375.00000000
806.29308921	2162.00000000
806.78317103	2378.00000000
807.27327287	2361.00000000
807.76339468	2340.00000000
808.25353644	2388.00000000
808.74369811	2385.00000000
809.23387964	2306.00000000
809.72408100	2330.00000000
810.21430216	2310.00000000
810.70454308	2347.00000000
811.19480372	2320.00000000
811.68508405	2333.00000000
812.17538402	2355.00000000
812.66570360	2340.00000000
813.15604276	2349.00000000
813.64640146	2307.00000000
814.13677965	2325.00000000
814.62717731	2346.00000000
815.11759440	2302.00000000
815.60803088	2353.00000000
816.09848671	2338.00000000
816.58896185	2305.00000000
817.07945628	2320.00000000
817.56996995	2231.00000000
818.06050283	2328.00000000
818.55105488	2313.00000000
819.04162606	2298.00000000
819.53221633	2345.00000000
820.02282567	2355.00000000
820.51345402	2337.00000000
821.00410137	2308.00000000
821.49476766	2228.00000000
821.98545286	2289.00000000
822.47615694	2301.00000000
822.96687986	2310.00000000

