Saved at time: 13585527 milliseconds
Integration time: 1500000
Scans to average: 0
Boxcar smoothing: 0
Wavelengths	Intensities
337.35134888	1658.00000000
337.80362194	1669.00000000
338.25595141	1688.00000000
338.70833725	1668.00000000
339.16077942	1650.00000000
339.61327788	1627.00000000
340.06583261	1658.00000000
340.51844356	1589.00000000
340.97111069	1603.00000000
341.42383397	1582.00000000
341.87661336	1565.00000000
342.32944883	1603.00000000
342.78234033	1608.00000000
343.23528784	1627.00000000
343.68829131	1659.00000000
344.14135070	1631.00000000
344.59446599	1652.00000000
345.04763714	1612.00000000
345.50086410	1593.00000000
345.95414684	1669.00000000
346.40748532	1625.00000000
346.86087951	1624.00000000
347.31432937	1639.00000000
347.76783486	1672.00000000
348.22139595	1638.00000000
348.67501260	1626.00000000
349.12868478	1651.00000000
349.58241244	1617.00000000
350.03619554	1661.00000000
350.49003406	1640.00000000
350.94392796	1630.00000000
351.39787720	1599.00000000
351.85188173	1624.00000000
352.30594153	1593.00000000
352.76005657	1614.00000000
353.21422679	1594.00000000
353.66845217	1645.00000000
354.12273266	1592.00000000
354.57706824	1602.00000000
355.03145886	1617.00000000
355.48590449	1645.00000000
355.94040509	1646.00000000
356.39496062	1626.00000000
356.84957105	1622.00000000
357.30423634	1649.00000000
357.75895646	1652.00000000
358.21373136	1614.00000000
358.66856102	1584.00000000
359.12344538	1652.00000000
359.57838442	1654.00000000
360.03337811	1565.00000000
360.48842639	1648.00000000
360.94352924	1579.00000000
361.39868662	1638.00000000
361.85389850	1634.00000000
362.30916483	1641.00000000
362.76448558	1664.00000000
363.21986071	1587.00000000
363.67529018	1611.00000000
364.13077397	1649.00000000
364.58631202	1645.00000000
365.04190431	1596.00000000
365.49755080	1573.00000000
365.95325145	1663.00000000
366.40900623	1592.00000000
366.86481509	1640.00000000
367.32067801	1667.00000000
367.77659494	1642.00000000
368.23256584	1654.00000000
368.68859069	1634.00000000
369.14466944	1608.00000000
369.60080206	1647.00000000
370.05698851	1599.00000000
370.51322875	1556.00000000
370.96952275	1599.00000000
371.42587047	1661.00000000
371.88227187	1664.00000000
372.33872691	1667.00000000
372.79523557	1594.00000000
373.25179780	1583.00000000
373.70841357	1632.00000000
374.16508283	1631.00000000
374.62180556	1639.00000000
375.07858171	1656.00000000
375.53541125	1664.00000000
375.99229415	1657.00000000
376.44923035	1555.00000000
376.90621984	1604.00000000
377.36326257	1660.00000000
377.82035850	1604.00000000
378.27750760	1618.00000000
378.73470984	1322.00000000
379.19196516	1609.00000000
379.64927355	1652.00000000
380.10663495	1512.00000000
380.56404934	1605.00000000
381.02151668	1628.00000000
381.47903693	1668.00000000
381.93661005	1615.00000000
382.39423600	1594.00000000
382.85191476	1655.00000000
383.30964628	1615.00000000
383.76743053	1620.00000000
384.22526746	1630.00000000
384.68315705	1594.00000000
385.14109926	1649.00000000
385.59909404	1626.00000000
386.05714137	1633.00000000
386.51524120	1639.00000000
386.97339351	1618.00000000
387.43159824	1619.00000000
387.88985537	1636.00000000
388.34816486	1643.00000000
388.80652667	1631.00000000
389.26494076	1653.00000000
389.72340710	1644.00000000
390.18192566	1642.00000000
390.64049638	1636.00000000
391.09911925	1655.00000000
391.55779422	1595.00000000
392.01652125	1664.00000000
392.47530030	1631.00000000
392.93413135	1512.00000000
393.39301436	1677.00000000
393.85194927	1655.00000000
394.31093607	1577.00000000
394.76997472	1636.00000000
395.22906517	1616.00000000
395.68820739	1577.00000000
396.14740134	1668.00000000
396.60664699	1694.00000000
397.06594429	1625.00000000
397.52529322	1665.00000000
397.98469374	1663.00000000
398.44414581	1638.00000000
398.90364938	1585.00000000
399.36320444	1664.00000000
399.82281093	1654.00000000
400.28246882	1642.00000000
400.74217808	1688.00000000
401.20193867	1631.00000000
401.66175054	1649.00000000
402.12161368	1678.00000000
402.58152803	1656.00000000
403.04149356	1636.00000000
403.50151023	1695.00000000
403.96157802	1663.00000000
404.42169687	1660.00000000
404.88186676	1634.00000000
405.34208764	1623.00000000
405.80235949	1666.00000000
406.26268226	1616.00000000
406.72305591	1629.00000000
407.18348042	1676.00000000
407.64395574	1687.00000000
408.10448183	1665.00000000
408.56505866	1597.00000000
409.02568620	1617.00000000
409.48636440	1602.00000000
409.94709324	1647.00000000
410.40787266	1635.00000000
410.86870264	1578.00000000
411.32958314	1659.00000000
411.79051412	1630.00000000
412.25149554	1530.00000000
412.71252738	1604.00000000
413.17360958	1655.00000000
413.63474212	1659.00000000
414.09592496	1673.00000000
414.55715806	1697.00000000
415.01844138	1623.00000000
415.47977490	1626.00000000
415.94115856	1672.00000000
416.40259233	1686.00000000
416.86407619	1592.00000000
417.32561008	1600.00000000
417.78719398	1672.00000000
418.24882784	1619.00000000
418.71051164	1699.00000000
419.17224533	1613.00000000
419.63402887	1680.00000000
420.09586223	1673.00000000
420.55774538	1642.00000000
421.01967827	1632.00000000
421.48166087	1658.00000000
421.94369315	1612.00000000
422.40577506	1679.00000000
422.86790657	1640.00000000
423.33008764	1532.00000000
423.79231823	1681.00000000
424.25459832	1685.00000000
424.71692786	1627.00000000
425.17930681	1661.00000000
425.64173514	1644.00000000
426.10421281	1663.00000000
426.56673978	1616.00000000
427.02931602	1548.00000000
427.49194150	1656.00000000
427.95461617	1684.00000000
428.41733999	1689.00000000
428.88011294	1691.00000000
429.34293497	1692.00000000
429.80580604	1588.00000000
430.26872613	1652.00000000
430.73169519	1693.00000000
431.19471319	1666.00000000
431.65778008	1643.00000000
432.12089584	1663.00000000
432.58406043	1670.00000000
433.04727380	1509.00000000
433.51053593	1617.00000000
433.97384677	1694.00000000
434.43720630	1653.00000000
434.90061446	1571.00000000
435.36407123	1700.00000000
435.82757657	1736.00000000
436.29113044	1659.00000000
436.75473281	1694.00000000
437.21838363	1675.00000000
437.68208288	1655.00000000
438.14583051	1721.00000000
438.60962648	1652.00000000
439.07347077	1662.00000000
439.53736333	1714.00000000
440.00130413	1673.00000000
440.46529314	1720.00000000
440.92933030	1694.00000000
441.39341559	1620.00000000
441.85754898	1683.00000000
442.32173041	1692.00000000
442.78595986	1708.00000000
443.25023730	1671.00000000
443.71456267	1663.00000000
444.17893595	1722.00000000
444.64335711	1729.00000000
445.10782609	1627.00000000
445.57234287	1691.00000000
446.03690741	1698.00000000
446.50151967	1661.00000000
446.96617962	1695.00000000
447.43088721	1673.00000000
447.89564242	1724.00000000
448.36044520	1747.00000000
448.82529553	1724.00000000
449.29019335	1747.00000000
449.75513864	1686.00000000
450.22013135	1733.00000000
450.68517146	1713.00000000
451.15025892	1674.00000000
451.61539370	1680.00000000
452.08057576	1744.00000000
452.54580506	1750.00000000
453.01108157	1735.00000000
453.47640525	1755.00000000
453.94177607	1698.00000000
454.40719398	1719.00000000
454.87265895	1706.00000000
455.33817095	1716.00000000
455.80372993	1719.00000000
456.26933586	1724.00000000
456.73498870	1702.00000000
457.20068842	1754.00000000
457.66643498	1747.00000000
458.13222835	1605.00000000
458.59806847	1480.00000000
459.06395533	1697.00000000
459.52988888	1681.00000000
459.99586908	1762.00000000
460.46189590	1772.00000000
460.92796931	1673.00000000
461.39408926	1756.00000000
461.86025571	1709.00000000
462.32646864	1750.00000000
462.79272800	1738.00000000
463.25903377	1768.00000000
463.72538589	1771.00000000
464.19178433	1736.00000000
464.65822906	1701.00000000
465.12472005	1746.00000000
465.59125725	1740.00000000
466.05784062	1760.00000000
466.52447013	1744.00000000
466.99114575	1720.00000000
467.45786744	1742.00000000
467.92463515	1733.00000000
468.39144886	1736.00000000
468.85830852	1704.00000000
469.32521410	1737.00000000
469.79216557	1771.00000000
470.25916288	1732.00000000
470.72620600	1755.00000000
471.19329489	1715.00000000
471.66042952	1736.00000000
472.12760985	1767.00000000
472.59483583	1756.00000000
473.06210745	1746.00000000
473.52942465	1789.00000000
473.99678740	1822.00000000
474.46419567	1703.00000000
474.93164941	1773.00000000
475.39914860	1770.00000000
475.86669319	1714.00000000
476.33428315	1818.00000000
476.80191844	1775.00000000
477.26959902	1800.00000000
477.73732486	1752.00000000
478.20509592	1764.00000000
478.67291216	1781.00000000
479.14077355	1793.00000000
479.60868006	1778.00000000
480.07663163	1791.00000000
480.54462824	1752.00000000
481.01266985	1792.00000000
481.48075642	1772.00000000
481.94888792	1809.00000000
482.41706430	1762.00000000
482.88528554	1779.00000000
483.35355160	1776.00000000
483.82186243	1808.00000000
484.29021801	1826.00000000
484.75861829	1791.00000000
485.22706324	1771.00000000
485.69555282	1822.00000000
486.16408699	1796.00000000
486.63266573	1790.00000000
487.10128898	1792.00000000
487.56995672	1831.00000000
488.03866891	1826.00000000
488.50742551	1792.00000000
488.97622648	1789.00000000
489.44507179	1706.00000000
489.91396139	1786.00000000
490.38289527	1757.00000000
490.85187337	1848.00000000
491.32089566	1862.00000000
491.78996210	1875.00000000
492.25907266	1816.00000000
492.72822730	1650.00000000
493.19742598	1853.00000000
493.66666867	1852.00000000
494.13595533	1860.00000000
494.60528591	1849.00000000
495.07466040	1873.00000000
495.54407874	1839.00000000
496.01354091	1864.00000000
496.48304686	1839.00000000
496.95259656	1867.00000000
497.42218997	1882.00000000
497.89182706	1795.00000000
498.36150779	1864.00000000
498.83123211	1864.00000000
499.30100000	1858.00000000
499.77081142	1890.00000000
500.24066633	1901.00000000
500.71056469	1856.00000000
501.18050648	1862.00000000
501.65049164	1905.00000000
502.12052014	1901.00000000
502.59059195	1920.00000000
503.06070704	1886.00000000
503.53086535	1822.00000000
504.00106686	1780.00000000
504.47131154	1904.00000000
504.94159933	1906.00000000
505.41193021	1893.00000000
505.88230414	1954.00000000
506.35272109	1972.00000000
506.82318101	1990.00000000
507.29368386	1961.00000000
507.76422962	1997.00000000
508.23481825	1987.00000000
508.70544970	1956.00000000
509.17612395	1945.00000000
509.64684095	1985.00000000
510.11760067	2006.00000000
510.58840307	2019.00000000
511.05924812	2020.00000000
511.53013577	2025.00000000
512.00106600	2019.00000000
512.47203875	2040.00000000
512.94305401	2008.00000000
513.41411173	2015.00000000
513.88521187	2036.00000000
514.35635440	2024.00000000
514.82753927	1965.00000000
515.29876647	1986.00000000
515.77003593	2032.00000000
516.24134764	1965.00000000
516.71270155	2047.00000000
517.18409763	2063.00000000
517.65553584	2062.00000000
518.12701614	2051.00000000
518.59853850	2079.00000000
519.07010287	1965.00000000
519.54170923	2066.00000000
520.01335753	1992.00000000
520.48504774	2072.00000000
520.95677983	2079.00000000
521.42855375	2049.00000000
521.90036946	2059.00000000
522.37222694	2053.00000000
522.84412615	2052.00000000
523.31606704	2099.00000000
523.78804958	2089.00000000
524.26007374	2074.00000000
524.73213947	2092.00000000
525.20424675	2079.00000000
525.67639553	2080.00000000
526.14858578	2126.00000000
526.62081745	2037.00000000
527.09309052	2087.00000000
527.56540495	2111.00000000
528.03776070	2086.00000000
528.51015773	2077.00000000
528.98259601	2103.00000000
529.45507550	2062.00000000
529.92759616	2100.00000000
530.40015795	2073.00000000
530.87276085	2092.00000000
531.34540481	2108.00000000
531.81808979	2078.00000000
532.29081576	2067.00000000
532.76358269	2102.00000000
533.23639053	2095.00000000
533.70923924	2071.00000000
534.18212880	2110.00000000
534.65505917	2138.00000000
535.12803030	2123.00000000
535.60104217	2137.00000000
536.07409473	2123.00000000
536.54718794	2126.00000000
537.02032178	2131.00000000
537.49349620	1808.00000000
537.96671117	2126.00000000
538.43996665	2166.00000000
538.91326261	2132.00000000
539.38659900	2049.00000000
539.85997579	2153.00000000
540.33339294	2171.00000000
540.80685042	2077.00000000
541.28034819	2154.00000000
541.75388622	2171.00000000
542.22746446	2096.00000000
542.70108287	2117.00000000
543.17474144	2168.00000000
543.64844010	2180.00000000
544.12217884	2109.00000000
544.59595761	2145.00000000
545.06977637	2187.00000000
545.54363510	2181.00000000
546.01753374	2174.00000000
546.49147227	2158.00000000
546.96545065	2179.00000000
547.43946884	2175.00000000
547.91352680	2135.00000000
548.38762450	2126.00000000
548.86176191	2058.00000000
549.33593897	2186.00000000
549.81015567	2097.00000000
550.28441195	2143.00000000
550.75870779	2166.00000000
551.23304315	1994.00000000
551.70741799	2202.00000000
552.18183227	2196.00000000
552.65628595	2177.00000000
553.13077901	2159.00000000
553.60531140	2143.00000000
554.07988309	2178.00000000
554.55449403	2172.00000000
555.02914420	2198.00000000
555.50383356	2223.00000000
555.97856206	2211.00000000
556.45332968	2141.00000000
556.92813637	2132.00000000
557.40298210	2178.00000000
557.87786683	2178.00000000
558.35279053	2190.00000000
558.82775315	2158.00000000
559.30275467	2229.00000000
559.77779504	2213.00000000
560.25287423	2213.00000000
560.72799221	2155.00000000
561.20314892	2268.00000000
561.67834435	2202.00000000
562.15357844	2231.00000000
562.62885117	2221.00000000
563.10416249	2246.00000000
563.57951238	2218.00000000
564.05490079	2225.00000000
564.53032769	2226.00000000
565.00579303	2280.00000000
565.48129679	2203.00000000
565.95683893	2264.00000000
566.43241940	2254.00000000
566.90803818	2174.00000000
567.38369523	2255.00000000
567.85939050	2184.00000000
568.33512397	2244.00000000
568.81089559	2263.00000000
569.28670533	2268.00000000
569.76255316	2258.00000000
570.23843902	2223.00000000
570.71436290	2246.00000000
571.19032475	2274.00000000
571.66632453	2267.00000000
572.14236222	2263.00000000
572.61843776	2259.00000000
573.09455113	2190.00000000
573.57070228	2257.00000000
574.04689119	2261.00000000
574.52311781	2248.00000000
574.99938211	2248.00000000
575.47568405	2325.00000000
575.95202359	2308.00000000
576.42840070	2115.00000000
576.90481534	2320.00000000
577.38126747	2265.00000000
577.85775706	2337.00000000
578.33428407	2355.00000000
578.81084846	2361.00000000
579.28745020	2325.00000000
579.76408925	2320.00000000
580.24076557	2388.00000000
580.71747912	2242.00000000
581.19422988	2362.00000000
581.67101780	2346.00000000
582.14784284	2408.00000000
582.62470497	2365.00000000
583.10160416	2360.00000000
583.57854035	2382.00000000
584.05551353	2317.00000000
584.53252365	2405.00000000
585.00957067	2401.00000000
585.48665456	2409.00000000
585.96377529	2418.00000000
586.44093280	2437.00000000
586.91812708	2403.00000000
587.39535807	2428.00000000
587.87262575	2404.00000000
588.34993007	2383.00000000
588.82727101	2358.00000000
589.30464852	2417.00000000
589.78206256	2432.00000000
590.25951311	2450.00000000
590.73700012	2427.00000000
591.21452355	2399.00000000
591.69208338	2386.00000000
592.16967956	2463.00000000
592.64731205	2400.00000000
593.12498082	2434.00000000
593.60268584	2486.00000000
594.08042706	2423.00000000
594.55820445	2455.00000000
595.03601797	2379.00000000
595.51386759	2456.00000000
595.99175326	2477.00000000
596.46967496	2419.00000000
596.94763264	2474.00000000
597.42562627	2452.00000000
597.90365581	2407.00000000
598.38172122	2440.00000000
598.85982248	2479.00000000
599.33795953	2406.00000000
599.81613235	2379.00000000
600.29434089	2482.00000000
600.77258513	2399.00000000
601.25086501	2546.00000000
601.72918052	2497.00000000
602.20753161	2544.00000000
602.68591823	2525.00000000
603.16434037	2542.00000000
603.64279797	2464.00000000
604.12129101	2503.00000000
604.59981945	2535.00000000
605.07838324	2544.00000000
605.55698236	2521.00000000
606.03561676	2511.00000000
606.51428641	2557.00000000
606.99299127	2535.00000000
607.47173131	2532.00000000
607.95050648	2542.00000000
608.42931676	2593.00000000
608.90816210	2567.00000000
609.38704248	2555.00000000
609.86595784	2558.00000000
610.34490816	2515.00000000
610.82389339	2560.00000000
611.30291351	2519.00000000
611.78196847	2558.00000000
612.26105823	2509.00000000
612.74018277	2545.00000000
613.21934204	2549.00000000
613.69853601	2559.00000000
614.17776464	2475.00000000
614.65702789	2552.00000000
615.13632573	2528.00000000
615.61565812	2551.00000000
616.09502502	2596.00000000
616.57442640	2541.00000000
617.05386221	2388.00000000
617.53333243	2490.00000000
618.01283702	2487.00000000
618.49237593	2567.00000000
618.97194914	2585.00000000
619.45155660	2508.00000000
619.93119828	2609.00000000
620.41087415	2586.00000000
620.89058415	2579.00000000
621.37032827	2553.00000000
621.85010646	2588.00000000
622.32991868	2553.00000000
622.80976490	2573.00000000
623.28964508	2591.00000000
623.76955919	2585.00000000
624.24950718	2601.00000000
624.72948902	2636.00000000
625.20950468	2636.00000000
625.68955412	2568.00000000
626.16963729	2541.00000000
626.64975417	2620.00000000
627.12990471	2634.00000000
627.61008889	2556.00000000
628.09030666	2667.00000000
628.57055798	2577.00000000
629.05084283	2659.00000000
629.53116115	2638.00000000
630.01151293	2617.00000000
630.49189811	2607.00000000
630.97231666	2607.00000000
631.45276855	2639.00000000
631.93325374	2616.00000000
632.41377219	2607.00000000
632.89432387	2573.00000000
633.37490873	2629.00000000
633.85552675	2604.00000000
634.33617788	2643.00000000
634.81686209	2601.00000000
635.29757934	2635.00000000
635.77832959	2624.00000000
636.25911281	2624.00000000
636.73992897	2633.00000000
637.22077801	2490.00000000
637.70165992	2640.00000000
638.18257464	2609.00000000
638.66352215	2597.00000000
639.14450240	2623.00000000
639.62551537	2585.00000000
640.10656101	2642.00000000
640.58763928	2590.00000000
641.06875016	2590.00000000
641.54989359	2632.00000000
642.03106956	2575.00000000
642.51227801	2623.00000000
642.99351892	2632.00000000
643.47479224	2418.00000000
643.95609794	2612.00000000
644.43743598	2554.00000000
644.91880633	2610.00000000
645.40020894	2585.00000000
645.88164379	2569.00000000
646.36311083	2651.00000000
646.84461003	2626.00000000
647.32614135	2634.00000000
647.80770476	2634.00000000
648.28930022	2651.00000000
648.77092768	2621.00000000
649.25258712	2573.00000000
649.73427850	2606.00000000
650.21600177	2590.00000000
650.69775691	2639.00000000
651.17954388	2614.00000000
651.66136264	2606.00000000
652.14321315	2661.00000000
652.62509538	2647.00000000
653.10700929	2596.00000000
653.58895484	2614.00000000
654.07093200	2662.00000000
654.55294072	2662.00000000
655.03498098	2650.00000000
655.51705274	2596.00000000
655.99915595	2620.00000000
656.48129059	2615.00000000
656.96345661	2586.00000000
657.44565398	2622.00000000
657.92788266	2605.00000000
658.41014262	2613.00000000
658.89243382	2626.00000000
659.37475621	2586.00000000
659.85710978	2618.00000000
660.33949447	2619.00000000
660.82191025	2576.00000000
661.30435708	2608.00000000
661.78683493	2598.00000000
662.26934377	2585.00000000
662.75188354	2609.00000000
663.23445423	2488.00000000
663.71705578	2562.00000000
664.19968817	2618.00000000
664.68235136	2584.00000000
665.16504530	2569.00000000
665.64776997	2541.00000000
666.13052532	2570.00000000
666.61331133	2572.00000000
667.09612794	2546.00000000
667.57897514	2567.00000000
668.06185287	2528.00000000
668.54476110	2527.00000000
669.02769980	2526.00000000
669.51066893	2556.00000000
669.99366845	2588.00000000
670.47669833	2585.00000000
670.95975852	2605.00000000
671.44284900	2558.00000000
671.92596972	2514.00000000
672.40912065	2588.00000000
672.89230175	2604.00000000
673.37551298	2570.00000000
673.85875431	2614.00000000
674.34202570	2590.00000000
674.82532712	2567.00000000
675.30865852	2602.00000000
675.79201988	2575.00000000
676.27541115	2609.00000000
676.75883229	2592.00000000
677.24228328	2612.00000000
677.72576406	2603.00000000
678.20927462	2645.00000000
678.69281490	2517.00000000
679.17638488	2577.00000000
679.65998451	2621.00000000
680.14361377	2625.00000000
680.62727260	2648.00000000
681.11096098	2613.00000000
681.59467887	2615.00000000
682.07842623	2591.00000000
682.56220303	2641.00000000
683.04600923	2542.00000000
683.52984478	2593.00000000
684.01370967	2609.00000000
684.49760384	2649.00000000
684.98152726	2658.00000000
685.46547989	2593.00000000
685.94946171	2649.00000000
686.43347266	2655.00000000
686.91751272	2678.00000000
687.40158185	2624.00000000
687.88568001	2663.00000000
688.36980716	2642.00000000
688.85396327	2637.00000000
689.33814829	2650.00000000
689.82236221	2665.00000000
690.30660496	2662.00000000
690.79087653	2655.00000000
691.27517687	2620.00000000
691.75950595	2658.00000000
692.24386373	2617.00000000
692.72825017	2681.00000000
693.21266523	2618.00000000
693.69710889	2595.00000000
694.18158109	2595.00000000
694.66608181	2629.00000000
695.15061101	2540.00000000
695.63516866	2598.00000000
696.11975470	2607.00000000
696.60436912	2640.00000000
697.08901187	2578.00000000
697.57368291	2603.00000000
698.05838221	2556.00000000
698.54310973	2607.00000000
699.02786544	2552.00000000
699.51264929	2624.00000000
699.99746125	2637.00000000
700.48230129	2639.00000000
700.96716936	2595.00000000
701.45206544	2618.00000000
701.93698948	2581.00000000
702.42194144	2607.00000000
702.90692130	2621.00000000
703.39192900	2547.00000000
703.87696453	2673.00000000
704.36202783	2651.00000000
704.84711888	2638.00000000
705.33223763	2632.00000000
705.81738405	2618.00000000
706.30255811	2654.00000000
706.78775976	2614.00000000
707.27298897	2617.00000000
707.75824570	2628.00000000
708.24352991	2575.00000000
708.72884158	2622.00000000
709.21418065	2632.00000000
709.69954710	2541.00000000
710.18494089	2645.00000000
710.67036198	2610.00000000
711.15581034	2621.00000000
711.64128592	2641.00000000
712.12678869	2657.00000000
712.61231862	2633.00000000
713.09787566	2571.00000000
713.58345979	2646.00000000
714.06907095	2642.00000000
714.55470913	2598.00000000
715.04037427	2619.00000000
715.52606635	2613.00000000
716.01178533	2647.00000000
716.49753116	2646.00000000
716.98330382	2644.00000000
717.46910326	2508.00000000
717.95492946	2575.00000000
718.44078236	2614.00000000
718.92666194	2622.00000000
719.41256816	2618.00000000
719.89850098	2598.00000000
720.38446037	2539.00000000
720.87044629	2588.00000000
721.35645870	2544.00000000
721.84249756	2612.00000000
722.32856284	2604.00000000
722.81465450	2601.00000000
723.30077251	2548.00000000
723.78691682	2571.00000000
724.27308741	2546.00000000
724.75928423	2562.00000000
725.24550724	2529.00000000
725.73175642	2550.00000000
726.21803172	2592.00000000
726.70433311	2572.00000000
727.19066055	2482.00000000
727.67701400	2533.00000000
728.16339343	2587.00000000
728.64979880	2560.00000000
729.13623007	2521.00000000
729.62268721	2555.00000000
730.10917018	2481.00000000
730.59567893	2530.00000000
731.08221345	2530.00000000
731.56877369	2524.00000000
732.05535960	2562.00000000
732.54197116	2568.00000000
733.02860834	2540.00000000
733.51527108	2510.00000000
734.00195936	2491.00000000
734.48867313	2530.00000000
734.97541237	2517.00000000
735.46217703	2564.00000000
735.94896708	2500.00000000
736.43578248	2576.00000000
736.92262320	2574.00000000
737.40948919	2549.00000000
737.89638043	2561.00000000
738.38329686	2563.00000000
738.87023847	2536.00000000
739.35720520	2487.00000000
739.84419703	2548.00000000
740.33121392	2564.00000000
740.81825582	2509.00000000
741.30532271	2413.00000000
741.79241455	2498.00000000
742.27953129	2531.00000000
742.76667291	2572.00000000
743.25383936	2558.00000000
743.74103061	2536.00000000
744.22824663	2570.00000000
744.71548737	2527.00000000
745.20275280	2447.00000000
745.69004288	2543.00000000
746.17735758	2546.00000000
746.66469685	2541.00000000
747.15206067	2500.00000000
747.63944899	2541.00000000
748.12686178	2517.00000000
748.61429900	2393.00000000
749.10176061	2522.00000000
749.58924659	2527.00000000
750.07675688	2532.00000000
750.56429146	2534.00000000
751.05185028	2468.00000000
751.53943332	2486.00000000
752.02704053	2395.00000000
752.51467187	2402.00000000
753.00232732	2425.00000000
753.49000683	2483.00000000
753.97771036	2513.00000000
754.46543789	2455.00000000
754.95318936	2482.00000000
755.44096476	2495.00000000
755.92876403	2459.00000000
756.41658715	2465.00000000
756.90443407	2501.00000000
757.39230476	2435.00000000
757.88019918	2414.00000000
758.36811730	2480.00000000
758.85605908	2466.00000000
759.34402448	2447.00000000
759.83201346	2395.00000000
760.32002599	2384.00000000
760.80806203	2250.00000000
761.29612155	2347.00000000
761.78420451	2419.00000000
762.27231086	2437.00000000
762.76044058	2453.00000000
763.24859363	2422.00000000
763.73676997	2379.00000000
764.22496956	2383.00000000
764.71319237	2409.00000000
765.20143836	2421.00000000
765.68970749	2415.00000000
766.17799973	2286.00000000
766.66631504	2350.00000000
767.15465338	2367.00000000
767.64301472	2352.00000000
768.13139902	2363.00000000
768.61980624	2386.00000000
769.10823635	2386.00000000
769.59668930	2369.00000000
770.08516507	2388.00000000
770.57366361	2342.00000000
771.06218489	2375.00000000
771.55072888	2332.00000000
772.03929553	2349.00000000
772.52788480	2374.00000000
773.01649667	2353.00000000
773.50513109	2292.00000000
773.99378804	2377.00000000
774.48246746	2352.00000000
774.97116932	2318.00000000
775.45989360	2340.00000000
775.94864024	2360.00000000
776.43740922	2303.00000000
776.92620050	2345.00000000
777.41501403	2275.00000000
777.90384979	2350.00000000
778.39270774	2323.00000000
778.88158784	2323.00000000
779.37049004	2331.00000000
779.85941433	2216.00000000
780.34836066	2312.00000000
780.83732898	2340.00000000
781.32631928	2332.00000000
781.81533150	2274.00000000
782.30436562	2249.00000000
782.79342159	2322.00000000
783.28249938	2303.00000000
783.77159895	2283.00000000
784.26072027	2269.00000000
784.74986329	2311.00000000
785.23902799	2287.00000000
785.72821432	2167.00000000
786.21742225	2302.00000000
786.70665174	2185.00000000
787.19590276	2273.00000000
787.68517526	2276.00000000
788.17446922	2080.00000000
788.66378459	2229.00000000
789.15312133	2208.00000000
789.64247942	2265.00000000
790.13185881	2278.00000000
790.62125947	2287.00000000
791.11068135	2238.00000000
791.60012443	2260.00000000
792.08958867	2193.00000000
792.57907402	2259.00000000
793.06858046	2187.00000000
793.55810795	2233.00000000
794.04765644	2217.00000000
794.53722591	2223.00000000
795.02681631	2228.00000000
795.51642762	2197.00000000
796.00605978	2228.00000000
796.49571277	2229.00000000
796.98538655	2215.00000000
797.47508108	2257.00000000
797.96479632	2191.00000000
798.45453224	2226.00000000
798.94428881	2191.00000000
799.43406597	2194.00000000
799.92386371	2180.00000000
800.41368198	2079.00000000
800.90352074	2212.00000000
801.39337996	2157.00000000
801.88325960	2081.00000000
802.37315962	2163.00000000
802.86307999	2172.00000000
803.35302067	2186.00000000
803.84298163	2163.00000000
804.33296282	2135.00000000
804.82296421	2165.00000000
805.31298576	2149.00000000
805.80302744	2152.00000000
806.29308921	1940.00000000
806.78317103	2141.00000000
807.27327287	2137.00000000
807.76339468	2120.00000000
808.25353644	2172.00000000
808.74369811	2149.00000000
809.23387964	2084.00000000
809.72408100	2120.00000000
810.21430216	2098.00000000
810.70454308	2133.00000000
811.19480372	2097.00000000
811.68508405	2120.00000000
812.17538402	2152.00000000
812.66570360	2129.00000000
813.15604276	2138.00000000
813.64640146	2099.00000000
814.13677965	2127.00000000
814.62717731	2147.00000000
815.11759440	2104.00000000
815.60803088	2143.00000000
816.09848671	2133.00000000
816.58896185	2112.00000000
817.07945628	2128.00000000
817.56996995	2028.00000000
818.06050283	2122.00000000
818.55105488	2112.00000000
819.04162606	2100.00000000
819.53221633	2142.00000000
820.02282567	2147.00000000
820.51345402	2133.00000000
821.00410137	2116.00000000
821.49476766	2039.00000000
821.98545286	2095.00000000
822.47615694	2105.00000000
822.96687986	2128.00000000

