Saved at time: 15428970 milliseconds
Integration time: 1500000
Scans to average: 0
Boxcar smoothing: 0
Wavelengths	Intensities
337.35134888	1665.00000000
337.80362194	1671.00000000
338.25595141	1685.00000000
338.70833725	1669.00000000
339.16077942	1652.00000000
339.61327788	1634.00000000
340.06583261	1650.00000000
340.51844356	1589.00000000
340.97111069	1600.00000000
341.42383397	1587.00000000
341.87661336	1565.00000000
342.32944883	1600.00000000
342.78234033	1611.00000000
343.23528784	1625.00000000
343.68829131	1656.00000000
344.14135070	1627.00000000
344.59446599	1660.00000000
345.04763714	1611.00000000
345.50086410	1592.00000000
345.95414684	1672.00000000
346.40748532	1626.00000000
346.86087951	1624.00000000
347.31432937	1645.00000000
347.76783486	1676.00000000
348.22139595	1628.00000000
348.67501260	1629.00000000
349.12868478	1651.00000000
349.58241244	1621.00000000
350.03619554	1659.00000000
350.49003406	1642.00000000
350.94392796	1630.00000000
351.39787720	1603.00000000
351.85188173	1627.00000000
352.30594153	1590.00000000
352.76005657	1614.00000000
353.21422679	1595.00000000
353.66845217	1647.00000000
354.12273266	1591.00000000
354.57706824	1603.00000000
355.03145886	1626.00000000
355.48590449	1642.00000000
355.94040509	1645.00000000
356.39496062	1623.00000000
356.84957105	1627.00000000
357.30423634	1650.00000000
357.75895646	1652.00000000
358.21373136	1612.00000000
358.66856102	1584.00000000
359.12344538	1646.00000000
359.57838442	1654.00000000
360.03337811	1565.00000000
360.48842639	1645.00000000
360.94352924	1575.00000000
361.39868662	1638.00000000
361.85389850	1637.00000000
362.30916483	1637.00000000
362.76448558	1663.00000000
363.21986071	1590.00000000
363.67529018	1609.00000000
364.13077397	1650.00000000
364.58631202	1643.00000000
365.04190431	1596.00000000
365.49755080	1575.00000000
365.95325145	1668.00000000
366.40900623	1595.00000000
366.86481509	1641.00000000
367.32067801	1667.00000000
367.77659494	1642.00000000
368.23256584	1655.00000000
368.68859069	1635.00000000
369.14466944	1610.00000000
369.60080206	1652.00000000
370.05698851	1604.00000000
370.51322875	1555.00000000
370.96952275	1602.00000000
371.42587047	1656.00000000
371.88227187	1666.00000000
372.33872691	1663.00000000
372.79523557	1595.00000000
373.25179780	1582.00000000
373.70841357	1635.00000000
374.16508283	1633.00000000
374.62180556	1640.00000000
375.07858171	1655.00000000
375.53541125	1667.00000000
375.99229415	1661.00000000
376.44923035	1559.00000000
376.90621984	1604.00000000
377.36326257	1667.00000000
377.82035850	1610.00000000
378.27750760	1618.00000000
378.73470984	1334.00000000
379.19196516	1613.00000000
379.64927355	1650.00000000
380.10663495	1515.00000000
380.56404934	1610.00000000
381.02151668	1629.00000000
381.47903693	1671.00000000
381.93661005	1615.00000000
382.39423600	1594.00000000
382.85191476	1656.00000000
383.30964628	1609.00000000
383.76743053	1619.00000000
384.22526746	1623.00000000
384.68315705	1600.00000000
385.14109926	1654.00000000
385.59909404	1632.00000000
386.05714137	1632.00000000
386.51524120	1640.00000000
386.97339351	1623.00000000
387.43159824	1619.00000000
387.88985537	1639.00000000
388.34816486	1642.00000000
388.80652667	1631.00000000
389.26494076	1659.00000000
389.72340710	1652.00000000
390.18192566	1650.00000000
390.64049638	1641.00000000
391.09911925	1657.00000000
391.55779422	1599.00000000
392.01652125	1664.00000000
392.47530030	1640.00000000
392.93413135	1514.00000000
393.39301436	1676.00000000
393.85194927	1659.00000000
394.31093607	1582.00000000
394.76997472	1640.00000000
395.22906517	1617.00000000
395.68820739	1580.00000000
396.14740134	1672.00000000
396.60664699	1694.00000000
397.06594429	1632.00000000
397.52529322	1669.00000000
397.98469374	1663.00000000
398.44414581	1635.00000000
398.90364938	1590.00000000
399.36320444	1674.00000000
399.82281093	1657.00000000
400.28246882	1643.00000000
400.74217808	1692.00000000
401.20193867	1634.00000000
401.66175054	1657.00000000
402.12161368	1678.00000000
402.58152803	1659.00000000
403.04149356	1638.00000000
403.50151023	1692.00000000
403.96157802	1674.00000000
404.42169687	1665.00000000
404.88186676	1645.00000000
405.34208764	1628.00000000
405.80235949	1670.00000000
406.26268226	1623.00000000
406.72305591	1634.00000000
407.18348042	1687.00000000
407.64395574	1696.00000000
408.10448183	1671.00000000
408.56505866	1600.00000000
409.02568620	1625.00000000
409.48636440	1610.00000000
409.94709324	1652.00000000
410.40787266	1646.00000000
410.86870264	1584.00000000
411.32958314	1666.00000000
411.79051412	1641.00000000
412.25149554	1532.00000000
412.71252738	1613.00000000
413.17360958	1667.00000000
413.63474212	1672.00000000
414.09592496	1685.00000000
414.55715806	1707.00000000
415.01844138	1636.00000000
415.47977490	1638.00000000
415.94115856	1685.00000000
416.40259233	1697.00000000
416.86407619	1605.00000000
417.32561008	1613.00000000
417.78719398	1679.00000000
418.24882784	1632.00000000
418.71051164	1708.00000000
419.17224533	1617.00000000
419.63402887	1696.00000000
420.09586223	1690.00000000
420.55774538	1650.00000000
421.01967827	1642.00000000
421.48166087	1675.00000000
421.94369315	1624.00000000
422.40577506	1692.00000000
422.86790657	1655.00000000
423.33008764	1546.00000000
423.79231823	1696.00000000
424.25459832	1699.00000000
424.71692786	1644.00000000
425.17930681	1675.00000000
425.64173514	1657.00000000
426.10421281	1684.00000000
426.56673978	1633.00000000
427.02931602	1564.00000000
427.49194150	1666.00000000
427.95461617	1706.00000000
428.41733999	1708.00000000
428.88011294	1713.00000000
429.34293497	1706.00000000
429.80580604	1611.00000000
430.26872613	1666.00000000
430.73169519	1710.00000000
431.19471319	1693.00000000
431.65778008	1665.00000000
432.12089584	1680.00000000
432.58406043	1688.00000000
433.04727380	1536.00000000
433.51053593	1644.00000000
433.97384677	1721.00000000
434.43720630	1676.00000000
434.90061446	1595.00000000
435.36407123	1728.00000000
435.82757657	1767.00000000
436.29113044	1685.00000000
436.75473281	1726.00000000
437.21838363	1704.00000000
437.68208288	1687.00000000
438.14583051	1753.00000000
438.60962648	1683.00000000
439.07347077	1691.00000000
439.53736333	1740.00000000
440.00130413	1699.00000000
440.46529314	1747.00000000
440.92933030	1721.00000000
441.39341559	1650.00000000
441.85754898	1715.00000000
442.32173041	1731.00000000
442.78595986	1740.00000000
443.25023730	1699.00000000
443.71456267	1697.00000000
444.17893595	1760.00000000
444.64335711	1770.00000000
445.10782609	1662.00000000
445.57234287	1730.00000000
446.03690741	1737.00000000
446.50151967	1706.00000000
446.96617962	1736.00000000
447.43088721	1717.00000000
447.89564242	1768.00000000
448.36044520	1795.00000000
448.82529553	1774.00000000
449.29019335	1798.00000000
449.75513864	1729.00000000
450.22013135	1789.00000000
450.68517146	1766.00000000
451.15025892	1727.00000000
451.61539370	1732.00000000
452.08057576	1788.00000000
452.54580506	1802.00000000
453.01108157	1788.00000000
453.47640525	1806.00000000
453.94177607	1747.00000000
454.40719398	1777.00000000
454.87265895	1758.00000000
455.33817095	1770.00000000
455.80372993	1772.00000000
456.26933586	1783.00000000
456.73498870	1767.00000000
457.20068842	1814.00000000
457.66643498	1810.00000000
458.13222835	1663.00000000
458.59806847	1548.00000000
459.06395533	1767.00000000
459.52988888	1744.00000000
459.99586908	1824.00000000
460.46189590	1841.00000000
460.92796931	1739.00000000
461.39408926	1825.00000000
461.86025571	1775.00000000
462.32646864	1817.00000000
462.79272800	1805.00000000
463.25903377	1835.00000000
463.72538589	1839.00000000
464.19178433	1797.00000000
464.65822906	1771.00000000
465.12472005	1811.00000000
465.59125725	1813.00000000
466.05784062	1823.00000000
466.52447013	1810.00000000
466.99114575	1786.00000000
467.45786744	1812.00000000
467.92463515	1803.00000000
468.39144886	1796.00000000
468.85830852	1767.00000000
469.32521410	1805.00000000
469.79216557	1833.00000000
470.25916288	1805.00000000
470.72620600	1827.00000000
471.19329489	1792.00000000
471.66042952	1813.00000000
472.12760985	1841.00000000
472.59483583	1834.00000000
473.06210745	1827.00000000
473.52942465	1877.00000000
473.99678740	1908.00000000
474.46419567	1792.00000000
474.93164941	1864.00000000
475.39914860	1865.00000000
475.86669319	1806.00000000
476.33428315	1910.00000000
476.80191844	1868.00000000
477.26959902	1895.00000000
477.73732486	1847.00000000
478.20509592	1860.00000000
478.67291216	1877.00000000
479.14077355	1893.00000000
479.60868006	1882.00000000
480.07663163	1894.00000000
480.54462824	1848.00000000
481.01266985	1895.00000000
481.48075642	1874.00000000
481.94888792	1909.00000000
482.41706430	1862.00000000
482.88528554	1877.00000000
483.35355160	1878.00000000
483.82186243	1909.00000000
484.29021801	1931.00000000
484.75861829	1900.00000000
485.22706324	1882.00000000
485.69555282	1931.00000000
486.16408699	1908.00000000
486.63266573	1905.00000000
487.10128898	1912.00000000
487.56995672	1951.00000000
488.03866891	1958.00000000
488.50742551	1915.00000000
488.97622648	1921.00000000
489.44507179	1845.00000000
489.91396139	1925.00000000
490.38289527	1897.00000000
490.85187337	1990.00000000
491.32089566	2008.00000000
491.78996210	2023.00000000
492.25907266	1964.00000000
492.72822730	1796.00000000
493.19742598	2005.00000000
493.66666867	2007.00000000
494.13595533	2006.00000000
494.60528591	2001.00000000
495.07466040	2024.00000000
495.54407874	1995.00000000
496.01354091	2014.00000000
496.48304686	1992.00000000
496.95259656	2019.00000000
497.42218997	2038.00000000
497.89182706	1951.00000000
498.36150779	2020.00000000
498.83123211	2012.00000000
499.30100000	2012.00000000
499.77081142	2053.00000000
500.24066633	2067.00000000
500.71056469	2021.00000000
501.18050648	2030.00000000
501.65049164	2069.00000000
502.12052014	2072.00000000
502.59059195	2092.00000000
503.06070704	2060.00000000
503.53086535	1998.00000000
504.00106686	1952.00000000
504.47131154	2092.00000000
504.94159933	2091.00000000
505.41193021	2091.00000000
505.88230414	2144.00000000
506.35272109	2181.00000000
506.82318101	2190.00000000
507.29368386	2165.00000000
507.76422962	2209.00000000
508.23481825	2207.00000000
508.70544970	2174.00000000
509.17612395	2173.00000000
509.64684095	2220.00000000
510.11760067	2235.00000000
510.58840307	2252.00000000
511.05924812	2248.00000000
511.53013577	2253.00000000
512.00106600	2254.00000000
512.47203875	2277.00000000
512.94305401	2240.00000000
513.41411173	2258.00000000
513.88521187	2268.00000000
514.35635440	2272.00000000
514.82753927	2210.00000000
515.29876647	2230.00000000
515.77003593	2284.00000000
516.24134764	2219.00000000
516.71270155	2302.00000000
517.18409763	2326.00000000
517.65553584	2321.00000000
518.12701614	2313.00000000
518.59853850	2351.00000000
519.07010287	2232.00000000
519.54170923	2331.00000000
520.01335753	2258.00000000
520.48504774	2345.00000000
520.95677983	2352.00000000
521.42855375	2327.00000000
521.90036946	2340.00000000
522.37222694	2338.00000000
522.84412615	2338.00000000
523.31606704	2384.00000000
523.78804958	2371.00000000
524.26007374	2352.00000000
524.73213947	2388.00000000
525.20424675	2359.00000000
525.67639553	2368.00000000
526.14858578	2413.00000000
526.62081745	2324.00000000
527.09309052	2369.00000000
527.56540495	2397.00000000
528.03776070	2371.00000000
528.51015773	2362.00000000
528.98259601	2397.00000000
529.45507550	2357.00000000
529.92759616	2386.00000000
530.40015795	2357.00000000
530.87276085	2372.00000000
531.34540481	2391.00000000
531.81808979	2368.00000000
532.29081576	2358.00000000
532.76358269	2385.00000000
533.23639053	2393.00000000
533.70923924	2353.00000000
534.18212880	2408.00000000
534.65505917	2434.00000000
535.12803030	2428.00000000
535.60104217	2438.00000000
536.07409473	2426.00000000
536.54718794	2426.00000000
537.02032178	2437.00000000
537.49349620	2129.00000000
537.96671117	2429.00000000
538.43996665	2480.00000000
538.91326261	2460.00000000
539.38659900	2364.00000000
539.85997579	2472.00000000
540.33339294	2490.00000000
540.80685042	2394.00000000
541.28034819	2461.00000000
541.75388622	2488.00000000
542.22746446	2393.00000000
542.70108287	2400.00000000
543.17474144	2475.00000000
543.64844010	2502.00000000
544.12217884	2424.00000000
544.59595761	2468.00000000
545.06977637	2507.00000000
545.54363510	2501.00000000
546.01753374	2497.00000000
546.49147227	2483.00000000
546.96545065	2490.00000000
547.43946884	2493.00000000
547.91352680	2463.00000000
548.38762450	2436.00000000
548.86176191	2367.00000000
549.33593897	2504.00000000
549.81015567	2412.00000000
550.28441195	2453.00000000
550.75870779	2476.00000000
551.23304315	2309.00000000
551.70741799	2512.00000000
552.18183227	2506.00000000
552.65628595	2497.00000000
553.13077901	2472.00000000
553.60531140	2456.00000000
554.07988309	2503.00000000
554.55449403	2492.00000000
555.02914420	2524.00000000
555.50383356	2557.00000000
555.97856206	2545.00000000
556.45332968	2463.00000000
556.92813637	2464.00000000
557.40298210	2505.00000000
557.87786683	2518.00000000
558.35279053	2529.00000000
558.82775315	2492.00000000
559.30275467	2566.00000000
559.77779504	2558.00000000
560.25287423	2553.00000000
560.72799221	2496.00000000
561.20314892	2605.00000000
561.67834435	2542.00000000
562.15357844	2581.00000000
562.62885117	2574.00000000
563.10416249	2587.00000000
563.57951238	2567.00000000
564.05490079	2573.00000000
564.53032769	2577.00000000
565.00579303	2622.00000000
565.48129679	2550.00000000
565.95683893	2613.00000000
566.43241940	2598.00000000
566.90803818	2515.00000000
567.38369523	2591.00000000
567.85939050	2523.00000000
568.33512397	2585.00000000
568.81089559	2610.00000000
569.28670533	2606.00000000
569.76255316	2593.00000000
570.23843902	2568.00000000
570.71436290	2597.00000000
571.19032475	2618.00000000
571.66632453	2605.00000000
572.14236222	2601.00000000
572.61843776	2606.00000000
573.09455113	2536.00000000
573.57070228	2609.00000000
574.04689119	2614.00000000
574.52311781	2598.00000000
574.99938211	2604.00000000
575.47568405	2684.00000000
575.95202359	2666.00000000
576.42840070	2479.00000000
576.90481534	2689.00000000
577.38126747	2642.00000000
577.85775706	2709.00000000
578.33428407	2738.00000000
578.81084846	2739.00000000
579.28745020	2708.00000000
579.76408925	2704.00000000
580.24076557	2785.00000000
580.71747912	2625.00000000
581.19422988	2750.00000000
581.67101780	2745.00000000
582.14784284	2802.00000000
582.62470497	2760.00000000
583.10160416	2747.00000000
583.57854035	2782.00000000
584.05551353	2722.00000000
584.53252365	2811.00000000
585.00957067	2815.00000000
585.48665456	2821.00000000
585.96377529	2825.00000000
586.44093280	2853.00000000
586.91812708	2816.00000000
587.39535807	2837.00000000
587.87262575	2818.00000000
588.34993007	2788.00000000
588.82727101	2774.00000000
589.30464852	2832.00000000
589.78206256	2845.00000000
590.25951311	2862.00000000
590.73700012	2834.00000000
591.21452355	2818.00000000
591.69208338	2798.00000000
592.16967956	2881.00000000
592.64731205	2816.00000000
593.12498082	2850.00000000
593.60268584	2904.00000000
594.08042706	2850.00000000
594.55820445	2874.00000000
595.03601797	2819.00000000
595.51386759	2874.00000000
595.99175326	2900.00000000
596.46967496	2850.00000000
596.94763264	2910.00000000
597.42562627	2885.00000000
597.90365581	2844.00000000
598.38172122	2872.00000000
598.85982248	2921.00000000
599.33795953	2844.00000000
599.81613235	2823.00000000
600.29434089	2931.00000000
600.77258513	2851.00000000
601.25086501	2993.00000000
601.72918052	2953.00000000
602.20753161	2998.00000000
602.68591823	2981.00000000
603.16434037	3001.00000000
603.64279797	2915.00000000
604.12129101	2958.00000000
604.59981945	2999.00000000
605.07838324	2998.00000000
605.55698236	2986.00000000
606.03561676	2974.00000000
606.51428641	3016.00000000
606.99299127	2995.00000000
607.47173131	2988.00000000
607.95050648	2997.00000000
608.42931676	3055.00000000
608.90816210	3030.00000000
609.38704248	3015.00000000
609.86595784	3008.00000000
610.34490816	2989.00000000
610.82389339	3022.00000000
611.30291351	2975.00000000
611.78196847	3005.00000000
612.26105823	2963.00000000
612.74018277	3004.00000000
613.21934204	3013.00000000
613.69853601	3011.00000000
614.17776464	2925.00000000
614.65702789	3013.00000000
615.13632573	2987.00000000
615.61565812	3010.00000000
616.09502502	3041.00000000
616.57442640	2985.00000000
617.05386221	2848.00000000
617.53333243	2949.00000000
618.01283702	2934.00000000
618.49237593	3020.00000000
618.97194914	3050.00000000
619.45155660	2966.00000000
619.93119828	3063.00000000
620.41087415	3040.00000000
620.89058415	3042.00000000
621.37032827	3014.00000000
621.85010646	3058.00000000
622.32991868	3007.00000000
622.80976490	3038.00000000
623.28964508	3058.00000000
623.76955919	3057.00000000
624.24950718	3085.00000000
624.72948902	3113.00000000
625.20950468	3109.00000000
625.68955412	3039.00000000
626.16963729	3010.00000000
626.64975417	3094.00000000
627.12990471	3119.00000000
627.61008889	3038.00000000
628.09030666	3138.00000000
628.57055798	3051.00000000
629.05084283	3132.00000000
629.53116115	3118.00000000
630.01151293	3093.00000000
630.49189811	3089.00000000
630.97231666	3077.00000000
631.45276855	3119.00000000
631.93325374	3082.00000000
632.41377219	3084.00000000
632.89432387	3044.00000000
633.37490873	3100.00000000
633.85552675	3060.00000000
634.33617788	3105.00000000
634.81686209	3074.00000000
635.29757934	3095.00000000
635.77832959	3083.00000000
636.25911281	3081.00000000
636.73992897	3093.00000000
637.22077801	2936.00000000
637.70165992	3094.00000000
638.18257464	3055.00000000
638.66352215	3045.00000000
639.14450240	3068.00000000
639.62551537	3027.00000000
640.10656101	3079.00000000
640.58763928	3029.00000000
641.06875016	3029.00000000
641.54989359	3064.00000000
642.03106956	3001.00000000
642.51227801	3064.00000000
642.99351892	3070.00000000
643.47479224	2846.00000000
643.95609794	3039.00000000
644.43743598	2982.00000000
644.91880633	3049.00000000
645.40020894	3020.00000000
645.88164379	3000.00000000
646.36311083	3097.00000000
646.84461003	3054.00000000
647.32614135	3074.00000000
647.80770476	3073.00000000
648.28930022	3086.00000000
648.77092768	3057.00000000
649.25258712	3018.00000000
649.73427850	3048.00000000
650.21600177	3029.00000000
650.69775691	3066.00000000
651.17954388	3048.00000000
651.66136264	3046.00000000
652.14321315	3093.00000000
652.62509538	3080.00000000
653.10700929	3027.00000000
653.58895484	3041.00000000
654.07093200	3091.00000000
654.55294072	3088.00000000
655.03498098	3074.00000000
655.51705274	3018.00000000
655.99915595	3044.00000000
656.48129059	3038.00000000
656.96345661	3003.00000000
657.44565398	3040.00000000
657.92788266	3019.00000000
658.41014262	3035.00000000
658.89243382	3047.00000000
659.37475621	2994.00000000
659.85710978	3019.00000000
660.33949447	3029.00000000
660.82191025	2983.00000000
661.30435708	3008.00000000
661.78683493	3010.00000000
662.26934377	2991.00000000
662.75188354	3015.00000000
663.23445423	2890.00000000
663.71705578	2962.00000000
664.19968817	3018.00000000
664.68235136	2988.00000000
665.16504530	2962.00000000
665.64776997	2935.00000000
666.13052532	2964.00000000
666.61331133	2964.00000000
667.09612794	2927.00000000
667.57897514	2941.00000000
668.06185287	2894.00000000
668.54476110	2907.00000000
669.02769980	2901.00000000
669.51066893	2943.00000000
669.99366845	2972.00000000
670.47669833	2976.00000000
670.95975852	2999.00000000
671.44284900	2938.00000000
671.92596972	2905.00000000
672.40912065	2965.00000000
672.89230175	2992.00000000
673.37551298	2948.00000000
673.85875431	2999.00000000
674.34202570	2959.00000000
674.82532712	2937.00000000
675.30865852	2981.00000000
675.79201988	2961.00000000
676.27541115	2986.00000000
676.75883229	2962.00000000
677.24228328	2991.00000000
677.72576406	2993.00000000
678.20927462	3033.00000000
678.69281490	2900.00000000
679.17638488	2958.00000000
679.65998451	3007.00000000
680.14361377	3010.00000000
680.62727260	3029.00000000
681.11096098	2999.00000000
681.59467887	2993.00000000
682.07842623	2966.00000000
682.56220303	3024.00000000
683.04600923	2907.00000000
683.52984478	2972.00000000
684.01370967	2987.00000000
684.49760384	3023.00000000
684.98152726	3033.00000000
685.46547989	2982.00000000
685.94946171	3019.00000000
686.43347266	3035.00000000
686.91751272	3063.00000000
687.40158185	2999.00000000
687.88568001	3037.00000000
688.36980716	3005.00000000
688.85396327	3001.00000000
689.33814829	3025.00000000
689.82236221	3029.00000000
690.30660496	3025.00000000
690.79087653	3027.00000000
691.27517687	2978.00000000
691.75950595	3026.00000000
692.24386373	2973.00000000
692.72825017	3052.00000000
693.21266523	2981.00000000
693.69710889	2945.00000000
694.18158109	2954.00000000
694.66608181	2979.00000000
695.15061101	2884.00000000
695.63516866	2954.00000000
696.11975470	2956.00000000
696.60436912	2995.00000000
697.08901187	2925.00000000
697.57368291	2946.00000000
698.05838221	2899.00000000
698.54310973	2949.00000000
699.02786544	2894.00000000
699.51264929	2958.00000000
699.99746125	2975.00000000
700.48230129	2972.00000000
700.96716936	2926.00000000
701.45206544	2954.00000000
701.93698948	2923.00000000
702.42194144	2945.00000000
702.90692130	2954.00000000
703.39192900	2874.00000000
703.87696453	3002.00000000
704.36202783	2980.00000000
704.84711888	2974.00000000
705.33223763	2964.00000000
705.81738405	2941.00000000
706.30255811	2986.00000000
706.78775976	2945.00000000
707.27298897	2944.00000000
707.75824570	2948.00000000
708.24352991	2893.00000000
708.72884158	2949.00000000
709.21418065	2950.00000000
709.69954710	2855.00000000
710.18494089	2960.00000000
710.67036198	2931.00000000
711.15581034	2941.00000000
711.64128592	2957.00000000
712.12678869	2960.00000000
712.61231862	2943.00000000
713.09787566	2885.00000000
713.58345979	2955.00000000
714.06907095	2950.00000000
714.55470913	2902.00000000
715.04037427	2933.00000000
715.52606635	2916.00000000
716.01178533	2948.00000000
716.49753116	2940.00000000
716.98330382	2937.00000000
717.46910326	2806.00000000
717.95492946	2863.00000000
718.44078236	2896.00000000
718.92666194	2911.00000000
719.41256816	2902.00000000
719.89850098	2876.00000000
720.38446037	2823.00000000
720.87044629	2873.00000000
721.35645870	2828.00000000
721.84249756	2887.00000000
722.32856284	2888.00000000
722.81465450	2872.00000000
723.30077251	2817.00000000
723.78691682	2844.00000000
724.27308741	2819.00000000
724.75928423	2829.00000000
725.24550724	2805.00000000
725.73175642	2825.00000000
726.21803172	2861.00000000
726.70433311	2837.00000000
727.19066055	2747.00000000
727.67701400	2805.00000000
728.16339343	2849.00000000
728.64979880	2816.00000000
729.13623007	2778.00000000
729.62268721	2805.00000000
730.10917018	2723.00000000
730.59567893	2767.00000000
731.08221345	2775.00000000
731.56877369	2764.00000000
732.05535960	2806.00000000
732.54197116	2805.00000000
733.02860834	2781.00000000
733.51527108	2733.00000000
734.00195936	2724.00000000
734.48867313	2767.00000000
734.97541237	2743.00000000
735.46217703	2795.00000000
735.94896708	2732.00000000
736.43578248	2807.00000000
736.92262320	2807.00000000
737.40948919	2778.00000000
737.89638043	2791.00000000
738.38329686	2786.00000000
738.87023847	2764.00000000
739.35720520	2715.00000000
739.84419703	2776.00000000
740.33121392	2800.00000000
740.81825582	2732.00000000
741.30532271	2643.00000000
741.79241455	2714.00000000
742.27953129	2742.00000000
742.76667291	2791.00000000
743.25383936	2777.00000000
743.74103061	2756.00000000
744.22824663	2792.00000000
744.71548737	2744.00000000
745.20275280	2668.00000000
745.69004288	2751.00000000
746.17735758	2745.00000000
746.66469685	2738.00000000
747.15206067	2707.00000000
747.63944899	2738.00000000
748.12686178	2713.00000000
748.61429900	2587.00000000
749.10176061	2721.00000000
749.58924659	2728.00000000
750.07675688	2732.00000000
750.56429146	2731.00000000
751.05185028	2661.00000000
751.53943332	2681.00000000
752.02704053	2584.00000000
752.51467187	2586.00000000
753.00232732	2607.00000000
753.49000683	2670.00000000
753.97771036	2701.00000000
754.46543789	2640.00000000
754.95318936	2662.00000000
755.44096476	2673.00000000
755.92876403	2648.00000000
756.41658715	2641.00000000
756.90443407	2684.00000000
757.39230476	2614.00000000
757.88019918	2593.00000000
758.36811730	2651.00000000
758.85605908	2635.00000000
759.34402448	2620.00000000
759.83201346	2574.00000000
760.32002599	2548.00000000
760.80806203	2395.00000000
761.29612155	2501.00000000
761.78420451	2589.00000000
762.27231086	2602.00000000
762.76044058	2620.00000000
763.24859363	2580.00000000
763.73676997	2542.00000000
764.22496956	2552.00000000
764.71319237	2578.00000000
765.20143836	2567.00000000
765.68970749	2571.00000000
766.17799973	2449.00000000
766.66631504	2495.00000000
767.15465338	2522.00000000
767.64301472	2500.00000000
768.13139902	2521.00000000
768.61980624	2541.00000000
769.10823635	2535.00000000
769.59668930	2515.00000000
770.08516507	2529.00000000
770.57366361	2486.00000000
771.06218489	2523.00000000
771.55072888	2476.00000000
772.03929553	2491.00000000
772.52788480	2522.00000000
773.01649667	2500.00000000
773.50513109	2433.00000000
773.99378804	2511.00000000
774.48246746	2490.00000000
774.97116932	2458.00000000
775.45989360	2479.00000000
775.94864024	2493.00000000
776.43740922	2441.00000000
776.92620050	2481.00000000
777.41501403	2409.00000000
777.90384979	2482.00000000
778.39270774	2445.00000000
778.88158784	2450.00000000
779.37049004	2463.00000000
779.85941433	2344.00000000
780.34836066	2434.00000000
780.83732898	2463.00000000
781.32631928	2454.00000000
781.81533150	2393.00000000
782.30436562	2369.00000000
782.79342159	2438.00000000
783.28249938	2426.00000000
783.77159895	2405.00000000
784.26072027	2394.00000000
784.74986329	2427.00000000
785.23902799	2408.00000000
785.72821432	2293.00000000
786.21742225	2420.00000000
786.70665174	2306.00000000
787.19590276	2387.00000000
787.68517526	2398.00000000
788.17446922	2190.00000000
788.66378459	2339.00000000
789.15312133	2317.00000000
789.64247942	2383.00000000
790.13185881	2389.00000000
790.62125947	2404.00000000
791.11068135	2361.00000000
791.60012443	2365.00000000
792.08958867	2302.00000000
792.57907402	2358.00000000
793.06858046	2290.00000000
793.55810795	2342.00000000
794.04765644	2307.00000000
794.53722591	2316.00000000
795.02681631	2326.00000000
795.51642762	2288.00000000
796.00605978	2322.00000000
796.49571277	2322.00000000
796.98538655	2310.00000000
797.47508108	2349.00000000
797.96479632	2288.00000000
798.45453224	2309.00000000
798.94428881	2279.00000000
799.43406597	2269.00000000
799.92386371	2265.00000000
800.41368198	2165.00000000
800.90352074	2294.00000000
801.39337996	2246.00000000
801.88325960	2172.00000000
802.37315962	2253.00000000
802.86307999	2259.00000000
803.35302067	2271.00000000
803.84298163	2243.00000000
804.33296282	2224.00000000
804.82296421	2250.00000000
805.31298576	2228.00000000
805.80302744	2223.00000000
806.29308921	2009.00000000
806.78317103	2218.00000000
807.27327287	2209.00000000
807.76339468	2189.00000000
808.25353644	2238.00000000
808.74369811	2220.00000000
809.23387964	2157.00000000
809.72408100	2188.00000000
810.21430216	2157.00000000
810.70454308	2191.00000000
811.19480372	2170.00000000
811.68508405	2186.00000000
812.17538402	2211.00000000
812.66570360	2184.00000000
813.15604276	2204.00000000
813.64640146	2162.00000000
814.13677965	2184.00000000
814.62717731	2204.00000000
815.11759440	2149.00000000
815.60803088	2204.00000000
816.09848671	2199.00000000
816.58896185	2166.00000000
817.07945628	2179.00000000
817.56996995	2089.00000000
818.06050283	2186.00000000
818.55105488	2174.00000000
819.04162606	2159.00000000
819.53221633	2200.00000000
820.02282567	2209.00000000
820.51345402	2198.00000000
821.00410137	2168.00000000
821.49476766	2085.00000000
821.98545286	2153.00000000
822.47615694	2165.00000000
822.96687986	2173.00000000

